# This file has been produced by extranormal (v 1.0.1 - February 23, 2017)
# O. Roudenko - Synchrotron SOLEIL. Covered by GPL licence.
#Data from HDF File: /nfs/ruche-rock/rock-soleil/com-rock/2022/Projets/20220725_Gilles/op2_cell3_cell4/op2_cell4_pos1_dq1/op2_cell4_pos1_dq1_0010/op2_cell4_pos1_dq1_0010_01058.nxs to op2_cell4_pos1_dq1_0010_01081.nxs
#Time at start=2022-07-27 00:45:02.122
#Time from start (seconds)=64.647152629
#Sample temperature (C)=nan
# Normalization -------------
# pivot spectrum: LNO_pristine_av1100_00001.txt
# E0=8332.88   Eshift=-0.146415513554
# E0_pivot = 8349.6
# pre-edge params: from E0_pivot-240.0 to E0_pivot-50.0
# pre-edge range: [8109.6, 8299.6]
# post-edge params: from E0_pivot+70.0 to E0_pivot+1155.0
# post-edge range: [8419.6, 9500.0]
# I jump at E0_pivot = 0.799381304197
# shifted energy	normalized	reference	ref.derivative	I0
        8060  0.001473936     1.037339 -0.0004363474     14939.85
        8065 0.0008629413     1.035153 -0.0004631107     14959.71
        8070 0.0005546053     1.032701 -0.0004500662     14984.67
        8075 0.0002600076     1.030415 -0.000455037      15008.1
        8080 0.0008163461     1.028338 -0.0004452767     15030.38
        8085 0.0006898287     1.026053 -0.000439882     15049.24
        8090 0.0006845642     1.023795 -0.0004574096     15072.37
        8095 0.0005360588     1.021617 -0.0004514536     15095.73
        8100 0.0004348317      1.01919 -0.000446172     15118.04
        8105 -0.0003076724     1.017023 -0.0004448088     15140.41
        8110 -0.0002771957     1.014872 -0.0004319277     15159.02
        8115 0.0007245204     1.012721 -0.0004290751     15178.98
        8120 -0.0001710113     1.010551 -0.0004204177      15199.8
        8125 -0.0003162941     1.008442 -0.0004139904     15220.49
        8130 -0.0006320905     1.006463 -0.0004099688     15241.86
        8135 0.0003619271     1.004441 -0.0004071663     15263.88
        8140  0.002354028     1.002352 -0.0004128574      15283.1
        8145  0.001772899     1.000299 -0.0004147242     15304.85
        8150 0.0004961734    0.9982062 -0.0004253192     15322.23
        8155 0.0001240602    0.9961468 -0.000417225     15344.67
        8160 -3.797433e-05    0.9938453 -0.0004243275     15364.31
        8165  0.001225856    0.9919541 -0.000436048     15392.36
        8170 -0.0003617861    0.9897196 -0.0004318583     15410.51
        8175 -0.0001427088    0.9874259 -0.0004346782     15432.53
        8180 0.0002375107    0.9852081 -0.0004317933     15452.44
        8185 -0.0001969005    0.9832605 -0.0004167147     15471.62
        8190 -0.001340899    0.9810837 -0.0003975926     15495.23
        8195 -0.0005313562    0.9790916 -0.000406926      15517.2
        8200 -0.001180953    0.9772562 -0.0004090325      15533.3
        8205 -0.001187867     0.975122 -0.000406625     15557.68
        8210 -0.001092148    0.9729031 -0.0004178742     15574.18
        8215 -0.001595616    0.9709591 -0.0004111027     15595.07
        8220 -0.001299377    0.9688988 -0.0003934508     15617.53
        8225 -0.000893294       0.9669 -0.0004075009     15638.78
        8230 0.0002923823    0.9650341 -0.0004053834     15660.05
        8235 -0.0002773561     0.962809 -0.0004057786     15677.61
        8240 -0.0001898633    0.9607911 -0.000392048     15700.26
        8245 0.0004087309    0.9587844 -0.0003741073     15720.81
        8250 7.875761e-05    0.9571931 -0.0003723196     15739.12
        8255   -0.0009041    0.9553269 -0.0003587806     15757.41
        8260 -0.0006277931    0.9533447 -0.0003554768      15777.4
        8265 0.0001551748    0.9516088 -0.0003550211     15797.73
        8270  0.001418142    0.9500836 -0.0003312713     15819.88
        8275 0.0009119483    0.9482265 -0.0003276866     15836.12
        8280 0.0005522271    0.9467193 -0.0003362995      15854.7
        8285  7.20549e-05    0.9450551 -0.0003088362     15867.29
        8290 0.0006759606    0.9433576 -0.0002988448     15880.45
        8295  0.001546914    0.9420497 -0.0002769333     15891.35
        8300   0.00480723    0.9408539 -0.0002239774     15818.48
      8300.2  0.004759543    0.9408501 3.616645e-05     15808.32
      8300.4  0.004645882     0.940868 5.178898e-05     15799.07
      8300.6  0.004573911    0.9408805 5.042173e-05     15791.79
      8300.8   0.00448819    0.9408953 -7.71777e-05     15786.09
        8301  0.004352935    0.9408904 -0.0002233979     15781.74
      8301.2   0.00429299    0.9408062 -0.0004756833     15778.74
      8301.4  0.004297414    0.9407018 -0.000613683      15777.2
      8301.6  0.004255692    0.9405148 -0.0006033278     15775.96
      8301.8   0.00420272    0.9403995 -0.0005012976     15775.19
        8302  0.004160378    0.9403236 -0.000384838      15774.5
      8302.2  0.004174186    0.9403008 -0.0002681046     15773.82
      8302.4  0.004242436    0.9402069 -0.0001579523     15773.13
      8302.6  0.004319834     0.940185 -0.0002642833     15771.84
      8302.8  0.004327338    0.9401972 -0.0002167247     15769.29
        8303   0.00437605    0.9400893 -0.0003008831      15765.9
      8303.2  0.004413705    0.9400335 -0.0003869525     15761.26
      8303.4  0.004488399    0.9399443 -0.0002573272     15754.81
      8303.6  0.004719355    0.9398877 -7.326547e-05     15747.51
      8303.8  0.004866925    0.9398835 9.151123e-05     15737.62
        8304  0.004961184    0.9399749 0.0001203381     15724.62
      8304.2  0.005172965    0.9400175 -7.952259e-05     15708.62
      8304.4  0.005455698    0.9399839 -0.0003713841     15686.64
      8304.6  0.005920498    0.9398198  -0.00063138        15658
      8304.8  0.006451525    0.9396778 -0.0007892201     15620.73
        8305  0.007064986    0.9395124 -0.0006532428      15571.5
      8305.2  0.007665531    0.9393526 -0.0004649514     15510.79
      8305.4   0.00816755    0.9392973 -0.0002424816     15439.87
      8305.6  0.008510196    0.9393058 -3.821804e-05     15360.94
      8305.8  0.008565029    0.9393184 0.0001789693     15283.48
        8306   0.00822249     0.939322 0.0004074382     15212.65
      8306.2  0.007646776    0.9394404 0.0006257059     15155.58
      8306.4  0.006916288    0.9396318 0.0007689153     15117.82
      8306.6  0.006009906     0.939819 0.0006847449     15100.31
      8306.8  0.005119517    0.9399371 0.0005693338     15104.01
        8307  0.004454922    0.9399882 0.0004749493      15127.6
      8307.2   0.00395845    0.9400872  0.000353886     15164.52
      8307.4  0.003599111    0.9401989 0.0003348713     15209.71
      8307.6  0.003404081    0.9402202 0.0002620135     15261.62
      8307.8  0.003225628    0.9402561 0.0003499414     15318.45
        8308  0.002974631    0.9402969 0.0004617465     15377.68
      8308.2  0.002626916    0.9404789 0.0005455088     15437.85
      8308.4  0.002457466    0.9405896 0.0004767022     15500.51
      8308.6  0.002394867    0.9406925 0.0001581772     15564.62
      8308.8  0.002487441    0.9406782 -0.0003421468     15627.38
        8309  0.002788826    0.9406054 -0.0007862675     15685.33
      8309.2   0.00327673    0.9403159 -0.001043676      15733.7
      8309.4  0.003819859    0.9400635 -0.001094515     15770.68
      8309.6  0.004352003    0.9398433 -0.0007401491     15794.66
      8309.8  0.004906993    0.9397298 -0.0004339843     15805.92
        8310  0.005263232    0.9397238 -0.0001336824     15806.36
      8310.2  0.005385257    0.9397163 0.0001516226     15800.41
      8310.4  0.005389284    0.9397363 0.0002747172     15793.18
      8310.6  0.005275707    0.9398511 0.0002844615     15787.49
      8310.8  0.005105908    0.9399436 0.0001905681     15784.65
        8311  0.004886092    0.9399439 -0.0001110903     15786.75
      8311.2  0.004801918    0.9398888 -0.0003703946     15793.67
      8311.4  0.005024311    0.9397623 -0.0004962036     15800.49
      8311.6  0.005395635    0.9396472 -0.0005711151     15802.01
      8311.8  0.005692062    0.9395469 -0.0003328354     15794.51
        8312  0.005932889    0.9394319 1.565922e-05     15782.43
      8312.2  0.006009963     0.939496 0.0003748403     15768.35
      8312.4  0.005916275    0.9396598 0.0006147721     15754.24
      8312.6  0.005765429    0.9398468 0.0004830338     15742.36
      8312.8  0.005676805    0.9399237 0.0001377094     15733.58
        8313  0.005784524    0.9398824 -0.0002269906     15726.62
      8313.2  0.006321709    0.9397699 -0.0005625778     15715.92
      8313.4   0.00700919    0.9396652 -0.0007090432     15692.36
      8313.6  0.007784359    0.9394736 -0.0007635493     15654.55
      8313.8  0.008559455    0.9393152 -0.000748489     15598.64
        8314  0.009307513    0.9391591 -0.0004701829      15525.7
      8314.2  0.009878367    0.9390664 -5.976802e-05     15442.77
      8314.4   0.01010182    0.9390975 0.0004840889     15357.52
      8314.6  0.009931462    0.9392674  0.001032343     15280.86
      8314.8  0.009567593    0.9395464   0.00143822     15220.47
        8315  0.009079062    0.9398923  0.001610643      15179.6
      8315.2  0.008442556    0.9402481  0.001583251     15162.63
      8315.4  0.007895327    0.9405559  0.001413998     15169.82
      8315.6  0.007555061     0.940813  0.001139043     15194.38
      8315.8  0.007397841    0.9410235 0.0008400512     15230.65
        8316  0.007438475    0.9411593 0.0004458416     15273.21
      8316.2  0.007503328    0.9412279 0.0003520977        15317
      8316.4  0.007638456    0.9411696 0.0002874484     15360.53
      8316.6  0.007623159    0.9413052  0.000322917     15402.78
      8316.8  0.007609258    0.9413893 0.0005314836     15445.67
        8317   0.00754536    0.9414863 0.0004465449     15489.36
      8317.2  0.007499001    0.9415948 0.0003733312     15533.61
      8317.4  0.007345959    0.9416624 0.0002687527     15576.43
      8317.6   0.00729007    0.9416879   0.00028525     15619.24
      8317.8  0.007316191    0.9417013 0.0002666107     15661.73
        8318  0.007372272     0.941823  0.000347594     15701.93
      8318.2  0.007589508    0.9418757 0.0004151886     15737.57
      8318.4  0.007926726     0.941966 0.0003658128     15768.47
      8318.6  0.008229148    0.9420334 0.0003631036     15794.02
      8318.8  0.008500159    0.9421157 0.0003193483     15815.57
        8319  0.008698032    0.9421662 0.0004299358     15833.61
      8319.2    0.0089327    0.9422215 0.0004449986     15849.08
      8319.4  0.009136613    0.9423774 0.0005477152     15862.11
      8319.6   0.00932986    0.9424717 0.0007735686     15873.21
      8319.8   0.00949972    0.9426044 0.0008234091     15883.05
        8320  0.009576691    0.9428403 0.0008704633     15892.06
      8320.2  0.009656177    0.9430361 0.0007864635        15900
      8320.4  0.009720859     0.943168 0.0007136424     15907.15
      8320.6  0.009856356    0.9432335 0.0006968635     15913.16
      8320.8  0.009901104    0.9434113  0.000637877     15918.41
        8321  0.009989307    0.9435936 0.0008416552      15923.6
      8321.2   0.01007032    0.9436783 0.0009687406     15928.53
      8321.4   0.01013951    0.9439068  0.001143028     15933.23
      8321.6   0.01013168    0.9441863  0.001323802     15938.28
      8321.8    0.0100416     0.944508  0.001405572     15943.09
        8322   0.01004074    0.9447374  0.001541502     15947.96
      8322.2   0.01009321    0.9450313  0.001559174     15953.81
      8322.4   0.01003896    0.9454195  0.001570889     15959.17
      8322.6  0.009999321    0.9457553  0.001552833     15964.94
      8322.8  0.009986305    0.9459941  0.001461104     15970.88
        8323  0.009950366    0.9462736  0.001526722     15977.42
      8323.2  0.009982603    0.9465883   0.00160691     15985.13
      8323.4   0.01001931    0.9469767  0.001742373     15992.72
      8323.6   0.01014979    0.9472796  0.001886735     16000.81
      8323.8   0.01025791    0.9476675  0.001875641      16008.4
        8324   0.01044877    0.9480977  0.001999961      16015.8
      8324.2   0.01054517    0.9484772  0.001988444     16022.17
      8324.4    0.0106282    0.9488796  0.001987178     16027.16
      8324.6   0.01086643    0.9492582   0.00211692     16031.89
      8324.8   0.01112578    0.9496875  0.002232264      16035.6
        8325   0.01128934    0.9501708  0.002517706     16038.32
      8325.2   0.01149841    0.9506654  0.002728841     16040.95
      8325.4   0.01164546    0.9512724   0.00279592     16042.88
      8325.6   0.01175454    0.9518705  0.002944474     16043.98
      8325.8   0.01197347    0.9524075  0.003152581     16045.31
        8326     0.012182     0.953021  0.003419168     16046.48
      8326.2   0.01228743    0.9537945  0.003816121     16047.53
      8326.4   0.01245319    0.9546059  0.004293981     16048.54
      8326.6   0.01264929    0.9554604  0.004629468     16049.93
      8326.8   0.01285788    0.9564562  0.004957551     16051.22
        8327   0.01292652     0.957498  0.005262564     16051.99
      8327.2   0.01303575    0.9585719  0.005357786     16053.17
      8327.4   0.01320437    0.9596704  0.005605066     16054.11
      8327.6   0.01347056    0.9607424  0.005872141     16055.29
      8327.8   0.01373956    0.9619821  0.006269101     16056.53
        8328    0.0139735    0.9632696   0.00688505     16057.58
      8328.2   0.01417091    0.9646857  0.007336834        16058
      8328.4   0.01441566    0.9662504  0.007807134      16058.9
      8328.6   0.01470525    0.9678515    0.0085932     16060.06
      8328.8   0.01495504    0.9695153  0.009381429     16060.74
        8329   0.01524255    0.9715603   0.01040172     16062.07
      8329.2   0.01555483    0.9737556   0.01177026     16063.18
      8329.4   0.01582585    0.9761729    0.0130603     16064.03
      8329.6   0.01612958    0.9789315   0.01464935     16064.86
      8329.8   0.01649064    0.9820085   0.01674467      16065.7
        8330   0.01682174    0.9854751    0.0195581     16066.51
      8330.2   0.01709901    0.9895687   0.02297474     16066.87
      8330.4   0.01750559     0.994578   0.02696528     16067.82
      8330.6   0.01806282     1.000388   0.03185611     16068.81
      8330.8   0.01868264     1.007047   0.03809331     16069.99
        8331   0.01930538     1.015054   0.04597036      16070.7
      8331.2    0.0200075     1.025053   0.05603722     16071.25
      8331.4   0.02082703     1.037165   0.06783516     16071.56
      8331.6    0.0218606     1.051877   0.08042163     16072.36
      8331.8   0.02304343     1.069322    0.0938789     16072.84
        8332   0.02434645      1.08939       0.1074     16072.92
      8332.2   0.02589564     1.112268    0.1198272     16073.04
      8332.4   0.02786105     1.137797    0.1306298     16074.05
      8332.6   0.03000618     1.165183    0.1393068     16074.38
      8332.8   0.03228394     1.193894    0.1450033     16074.07
        8333   0.03483129     1.223713    0.1481557     16073.72
      8333.2   0.03748953       1.2538    0.1486963     16073.49
      8333.4   0.04009169     1.283708    0.1463645     16073.15
      8333.6   0.04256663     1.312851    0.1427198     16073.35
      8333.8   0.04470606     1.340805    0.1384554      16073.1
        8334   0.04647517     1.367976    0.1330162     16072.65
      8334.2   0.04783723     1.394472    0.1266526     16072.12
      8334.4   0.04875971     1.419264     0.119394      16072.1
      8334.6     0.049292     1.442127     0.110424      16072.2
      8334.8   0.04944722     1.463491    0.1016567     16072.35
        8335   0.04934898     1.482812   0.09343221     16072.56
      8335.2   0.04907567     1.500589   0.08520969      16072.7
      8335.4   0.04873955     1.516873   0.07709154     16072.77
      8335.6   0.04853869     1.531659    0.0691608      16073.4
      8335.8   0.04843923     1.544485   0.06189556     16073.45
        8336   0.04867281     1.555918   0.05577035     16073.86
      8336.2   0.04910894     1.566389   0.05103264     16074.61
      8336.4   0.04973405     1.576275   0.04725848     16075.13
      8336.6   0.05063549     1.585311   0.04399032     16076.04
      8336.8     0.051794     1.593725   0.04147211     16077.73
        8337   0.05300044     1.601581   0.04041391     16078.61
      8337.2   0.05443444     1.609453   0.04068338      16079.6
      8337.4   0.05602259     1.617642   0.04242175     16080.65
      8337.6   0.05782731     1.626271    0.0449432     16082.07
      8337.8   0.05985351     1.635519     0.048026     16083.17
        8338   0.06201202     1.645407   0.05149619     16084.03
      8338.2   0.06440175     1.656063   0.05509809     16085.16
      8338.4   0.06692618     1.667468   0.05841126     16086.03
      8338.6   0.06982382     1.679597   0.06104093     16087.66
      8338.8    0.0729239     1.692136   0.06317206     16088.84
        8339   0.07622137     1.704896   0.06427864     16089.42
      8339.2   0.08004396     1.718006   0.06487623     16090.34
      8339.4    0.0843934      1.73102   0.06414227     16091.53
      8339.6   0.08929704     1.744037   0.06250186     16092.47
      8339.8   0.09487045     1.756209   0.06063377     16093.06
        8340    0.1011452     1.768007   0.05889735     16093.95
      8340.2    0.1082951     1.779527    0.0578699      16094.6
      8340.4    0.1166563     1.791155   0.05688491     16094.85
      8340.6     0.126346     1.802505   0.05630409     16094.86
      8340.8    0.1374443     1.813515   0.05562191     16095.17
        8341    0.1499261      1.82457   0.05584982     16095.61
      8341.2    0.1640179     1.835652   0.05786702     16096.07
      8341.4    0.1800012     1.847185   0.06108064     16096.59
      8341.6    0.1977719     1.859809   0.06529459     16097.45
      8341.8    0.2170863     1.873435   0.06990733     16097.78
        8342    0.2371389     1.887888   0.07379665     16098.32
      8342.2    0.2573532     1.903111   0.07854897     16099.09
      8342.4    0.2772394     1.918846   0.08401953     16100.15
      8342.6    0.2972909     1.936274   0.08966974     16100.48
      8342.8    0.3170505     1.955104    0.0953674        16101
        8343     0.336152     1.974847    0.1001395     16102.07
      8343.2    0.3543763      1.99514    0.1044092     16102.69
      8343.4    0.3719089     2.016386    0.1084523     16103.33
      8343.6    0.3890009     2.038631    0.1124019     16103.91
      8343.8    0.4056789     2.061609    0.1156692     16104.51
        8344    0.4221637     2.085062    0.1185395     16105.03
      8344.2    0.4386766     2.108921    0.1212783      16105.6
      8344.4    0.4553296     2.133463    0.1237549     16105.93
      8344.6     0.472526     2.158631    0.1258297     16106.45
      8344.8     0.490118     2.184066    0.1273852     16106.52
        8345    0.5081616     2.209585    0.1285531     16106.76
      8345.2     0.526985     2.235371    0.1300905     16107.26
      8345.4    0.5467552     2.261474    0.1320628     16107.94
      8345.6    0.5674095     2.288138    0.1332723     16108.69
      8345.8    0.5888722     2.315235    0.1336676     16109.79
        8346    0.6107941     2.341989    0.1327729     16110.59
      8346.2    0.6331261     2.368408    0.1316146     16111.54
      8346.4    0.6557485     2.394356    0.1303887     16112.67
      8346.6    0.6793621     2.420527     0.128779     16113.85
      8346.8    0.7034552       2.4463    0.1252598     16114.61
        8347     0.728186     2.471431    0.1203821     16115.65
      8347.2    0.7527025     2.494564    0.1142695     16116.19
      8347.4    0.7778981     2.516832    0.1077004     16116.95
      8347.6    0.8041051     2.537715    0.1012056     16117.65
      8347.8    0.8321689     2.557591    0.0933555     16118.35
        8348     0.862194     2.575529   0.08556771     16118.99
      8348.2    0.8933121     2.591517   0.07579546     16119.03
      8348.4     0.925549     2.606169   0.06617794     16118.97
      8348.6    0.9595753     2.618228   0.05801647     16119.23
      8348.8     0.995817     2.628471   0.04875002      16119.4
        8349     1.034229      2.63793   0.04086644     16119.51
      8349.2     1.074419     2.645169   0.03380259     16119.07
      8349.4     1.115594     2.650921   0.02634255     16118.86
      8349.6     1.157644     2.655513   0.02081151     16118.43
      8349.8     1.200432     2.659004   0.01609105     16118.61
        8350     1.242629     2.661819   0.01112356     16118.57
      8350.2     1.284083     2.663794   0.00656802     16118.59
      8350.4     1.324663     2.664412  0.002576225     16118.49
      8350.6     1.363831     2.664258 -0.001071493     16118.55
      8350.8     1.400588      2.66388 -0.004055726     16119.14
        8351      1.43486     2.662936 -0.006635252     16119.51
      8351.2     1.465674     2.661167 -0.008985261     16119.86
      8351.4     1.492622      2.65895  -0.01112472     16119.87
      8351.6     1.516273     2.656691  -0.01274716     16119.99
      8351.8     1.537024     2.654037  -0.01366374     16120.83
        8352     1.554106      2.65097  -0.01454428     16121.26
      8352.2      1.56732     2.648019  -0.01460745     16121.64
      8352.4     1.576661     2.645056  -0.01488717     16121.35
      8352.6     1.582164     2.642351  -0.01425722     16120.94
      8352.8     1.584153      2.63906  -0.01302241     16120.94
        8353     1.582845     2.636613  -0.01084019     16121.21
      8353.2     1.577943     2.634638 -0.007321158     16121.11
      8353.4     1.569402     2.633679 -0.004204768     16121.75
      8353.6     1.557845     2.633203 -7.807512e-05     16122.44
      8353.8     1.543388      2.63325  0.003333628     16123.14
        8354     1.525283     2.634576  0.007403668     16123.13
      8354.2     1.504438     2.636345   0.01193932     16123.91
      8354.4       1.4814     2.639126    0.0165579     16124.54
      8354.6     1.456765     2.642801   0.02179522     16124.76
      8354.8     1.430949     2.647822   0.02586836     16125.99
        8355     1.404369     2.653782   0.02994653     16127.23
      8355.2     1.377299     2.659821   0.03287165     16128.16
      8355.4      1.35056     2.666758   0.03544798     16129.12
      8355.6     1.324411     2.674119   0.03779846     16129.79
      8355.8     1.298895      2.68214   0.03933736     16130.67
        8356     1.274083     2.690059   0.04049365     16131.38
      8356.2     1.250649     2.698228   0.03984101     16132.15
      8356.4     1.228702     2.706514   0.03874478     16132.68
      8356.6     1.208517     2.714013   0.03646593     16133.66
      8356.8     1.189589     2.721055   0.03245113     16134.72
        8357     1.171878     2.727401   0.02922017     16135.35
      8357.2     1.155464     2.732475   0.02537176     16136.07
      8357.4     1.140993     2.737389   0.02196693     16137.13
      8357.6     1.128038     2.741353   0.01773043     16137.92
      8357.8     1.116196     2.744974   0.01278244     16138.54
        8358     1.105402     2.746659  0.007200172     16139.96
      8358.2     1.095454     2.747615  0.001745303     16140.85
      8358.4     1.086403     2.747113  -0.00231283     16141.91
      8358.6     1.078372     2.746371 -0.006785486     16142.86
      8358.8     1.071019     2.744809 -0.009207044     16143.41
        8359     1.064103     2.742187  -0.01334625      16143.9
      8359.2     1.057563     2.739747  -0.01665623      16145.1
      8359.4     1.051054     2.735694  -0.01826664      16145.4
      8359.6      1.04497     2.731484    -0.020817     16146.14
      8359.8     1.039251     2.727573  -0.02110167     16146.73
        8360     1.033613     2.723093  -0.02060023     16147.01
      8360.2     1.028004     2.718812  -0.02100725     16147.54
      8360.4     1.022345     2.715004   -0.0206466      16148.2
      8360.6     1.016817     2.710767  -0.02069762     16148.98
      8360.8      1.01144     2.706576  -0.02077493     16149.64
        8361     1.006139     2.702254  -0.01996382      16150.6
      8361.2     1.001032     2.698384  -0.01859242     16152.02
      8361.4     0.996029     2.694796  -0.01729623     16153.25
      8361.6    0.9909836     2.691702  -0.01643657     16154.04
      8361.8    0.9860707     2.688417   -0.0165723     16155.02
        8362     0.981308     2.685235  -0.01761415     16155.24
      8362.2    0.9767568     2.681539  -0.01808752      16155.9
      8362.4    0.9724595     2.677611  -0.01872673     16157.17
      8362.6     0.968346     2.673947  -0.01880448     16157.61
      8362.8    0.9646749     2.670253  -0.01920639     16158.66
        8363    0.9613531     2.666495  -0.01952094     16159.64
      8363.2    0.9582947     2.662246  -0.02029903     16160.92
      8363.4    0.9555851      2.65833  -0.02142629     16162.21
      8363.6      0.95346     2.654014  -0.02214957     16163.29
      8363.8    0.9518933     2.649354  -0.02345508     16163.87
        8364    0.9509194     2.644526  -0.02426441     16164.98
      8364.2    0.9504532     2.639566  -0.02509848     16165.63
      8364.4    0.9506762     2.634603  -0.02500528     16166.73
      8364.6    0.9514067     2.629275  -0.02436018     16167.24
      8364.8    0.9528447     2.624522  -0.02344058      16168.5
        8365    0.9548157     2.620078  -0.02205286     16169.86
      8365.2    0.9573241      2.61585  -0.02126268     16171.09
      8365.4    0.9603185     2.611633  -0.02049091     16171.93
      8365.6    0.9637888     2.607512  -0.01952067      16172.9
      8365.8    0.9676018     2.603686  -0.01855061     16173.69
        8366    0.9717851     2.600234  -0.01726377     16175.04
      8366.2    0.9761343     2.596792  -0.01560442     16176.12
      8366.4    0.9806103     2.593701  -0.01367587     16177.12
      8366.6    0.9850876     2.591202  -0.01165506     16178.02
      8366.8    0.9894891     2.589293  -0.01069186     16179.08
        8367    0.9937782     2.587468 -0.009318627     16180.25
      8367.2     0.997873     2.585147 -0.008683769     16181.05
      8367.4     1.001897     2.583747 -0.008257302     16182.35
      8367.6     1.005596     2.582346 -0.006759527     16183.39
      8367.8     1.008832     2.580862 -0.006412779     16184.45
        8368     1.011465      2.57974 -0.005543113     16185.57
      8368.2     1.013634     2.578617  -0.00481243     16186.48
      8368.4     1.015555     2.577911 -0.004538615     16187.82
      8368.6     1.016894     2.577013 -0.003996387     16188.92
      8368.8     1.017823     2.576109 -0.003890441     16190.29
        8369     1.018124      2.57542 -0.003374433     16191.28
      8369.2     1.017969     2.574799 -0.002440797     16192.27
      8369.4     1.017155     2.574313 -0.001828061     16193.56
      8369.6     1.015805     2.574156 -0.001332123      16194.2
      8369.8     1.013988     2.573957 -0.0002257114     16195.01
        8370     1.011702     2.573733 0.0008416561     16195.28
      8370.2     1.009055     2.574132  0.001910067     16196.01
      8370.4     1.006202     2.574829  0.002616673     16197.12
      8370.6     1.002929     2.575485  0.003502401      16197.5
      8370.8    0.9993338     2.575827  0.004532773     16198.18
        8371    0.9955768     2.576934  0.005808163     16199.07
      8371.2    0.9916946     2.578456  0.007897261     16200.19
      8371.4    0.9875386     2.580132  0.009571852     16201.27
      8371.6    0.9831285     2.582145  0.009980547     16201.91
      8371.8    0.9786143     2.584592   0.01109298     16202.56
        8372    0.9740709      2.58644   0.01180334     16203.62
      8372.2     0.969394     2.589006   0.01269168     16204.41
      8372.4    0.9646539     2.591587   0.01430712     16205.46
      8372.6     0.959787     2.594745   0.01559993     16206.03
      8372.8    0.9547902     2.597886   0.01692515     16206.53
        8373    0.9496756     2.601486   0.01780954     16206.92
      8373.2    0.9446942     2.605127   0.01878536     16207.64
      8373.4    0.9395877     2.608993   0.01976202      16207.9
      8373.6    0.9345144     2.612914   0.02075961     16208.61
      8373.8    0.9293099     2.617296    0.0214226     16209.72
        8374    0.9241473     2.621735   0.02227178      16210.2
      8374.2    0.9189378     2.626131   0.02257073     16210.26
      8374.4     0.913775     2.630732   0.02332621     16210.74
      8374.6    0.9086062     2.635352   0.02400897     16211.34
      8374.8    0.9033837     2.640396   0.02425535     16211.73
        8375    0.8981411     2.645338    0.0249967     16212.16
      8375.2    0.8931061     2.650136   0.02529881     16213.22
      8375.4    0.8881925      2.65535   0.02592231      16213.9
      8375.6    0.8833567     2.660635   0.02667774     16214.51
      8375.8    0.8786034     2.666076   0.02732601     16215.09
        8376    0.8739009     2.671478   0.02819295     16216.21
      8376.2    0.8693005     2.677211   0.02878527     16217.35
      8376.4    0.8648943     2.683189    0.0295431     16218.24
      8376.6    0.8606812     2.689104   0.03022351      16218.6
      8376.8    0.8566786     2.695112   0.03009028     16219.55
        8377    0.8528686     2.701389     0.030274     16220.49
      8377.2    0.8492855     2.707262   0.03047077     16221.54
      8377.4    0.8458957     2.713323   0.03028298     16222.41
      8377.6    0.8427875     2.719489    0.0304485     16223.43
      8377.8    0.8400016     2.725616   0.03032293     16224.86
        8378    0.8373908      2.73162   0.03062642     16225.64
      8378.2    0.8349644     2.737582   0.02977034     16225.96
      8378.4    0.8327259      2.74399   0.02917972     16226.05
      8378.6    0.8306902     2.749432    0.0289786     16226.74
      8378.8    0.8288941     2.754964   0.02722154      16227.7
        8379    0.8273804     2.760765   0.02745963     16228.56
      8379.2    0.8259663     2.765767   0.02717903     16229.05
      8379.4    0.8247781       2.7714   0.02625827     16229.99
      8379.6    0.8237357     2.776707   0.02629681     16230.47
      8379.8    0.8229211     2.781771   0.02534046     16231.85
        8380     0.822366     2.786805   0.02348025     16232.81
      8380.2     0.821921     2.791672   0.02291559     16233.45
      8380.4     0.821682     2.795492    0.0214794     16233.89
      8380.6    0.8217272     2.800104   0.01956642     16234.91
      8380.8    0.8220762     2.803988   0.01788904     16235.95
        8381    0.8225649     2.807325   0.01556112     16236.73
      8381.2    0.8233173     2.809803   0.01351577     16237.86
      8381.4    0.8242626     2.812552   0.01212643     16238.44
      8381.6    0.8253836     2.814801   0.01093184     16238.82
      8381.8    0.8267371     2.817026  0.009086707     16239.59
        8382    0.8283599     2.818548  0.007841172     16240.46
      8382.2    0.8301045     2.819822  0.005523036     16241.22
      8382.4    0.8320962     2.821074  0.003128976     16241.83
      8382.6    0.8342842     2.821445 0.0007947634      16242.8
      8382.8    0.8365328     2.821052 -0.002109722     16243.42
        8383    0.8388939     2.820458  -0.00393725     16244.17
      8383.2    0.8413447     2.819386 -0.005157633        16245
      8383.4    0.8438276     2.818295 -0.006578417     16246.02
      8383.6    0.8463622     2.816925 -0.008538321     16247.11
      8383.8    0.8489148     2.815195  -0.01025456      16247.9
        8384     0.851445     2.812556  -0.01227834     16248.69
      8384.2    0.8538551     2.810091  -0.01366879     16249.27
      8384.4    0.8561924     2.807103  -0.01452812     16250.57
      8384.6    0.8581991      2.80426  -0.01556145     16250.76
      8384.8    0.8600644     2.800933  -0.01690306     16250.88
        8385     0.861877     2.797642  -0.01878491     16251.82
      8385.2    0.8635959      2.79358  -0.02031839     16252.83
      8385.4     0.865062     2.789232   -0.0225266     16253.36
      8385.6     0.866487     2.784678  -0.02355575     16253.76
      8385.8     0.867865     2.779621  -0.02468024     16254.77
        8386    0.8691231     2.774736  -0.02623468     16255.54
      8386.2    0.8702509     2.769488  -0.02736206     16256.34
      8386.4    0.8712521     2.763691  -0.02811924     16256.81
      8386.6    0.8720788     2.757731  -0.02842709      16257.1
      8386.8    0.8729139      2.75224  -0.02878967     16257.64
        8387    0.8737388     2.746746  -0.02882769     16258.58
      8387.2    0.8744992     2.740659  -0.02964872     16259.24
      8387.4    0.8751954     2.734669  -0.03013715      16260.1
      8387.6    0.8758326     2.728521  -0.03062055     16260.58
      8387.8    0.8765741     2.722636  -0.03065102     16261.57
        8388    0.8773726     2.716162   -0.0304279     16262.52
      8388.2    0.8781577     2.710148  -0.03120112      16263.3
      8388.4    0.8789146     2.704179  -0.03067626     16264.25
      8388.6    0.8797301     2.697676  -0.03046139     16264.77
      8388.8    0.8805019     2.691621  -0.03008742     16265.19
        8389    0.8813111     2.685779  -0.02893884     16265.94
      8389.2    0.8822211     2.680109  -0.02846684     16266.94
      8389.4    0.8833106     2.674524   -0.0280871     16268.04
      8389.6    0.8844186     2.668848  -0.02711241     16268.49
      8389.8    0.8856556      2.66331   -0.0256027     16269.24
        8390    0.8869594     2.658419  -0.02556123     16269.73
      8390.2    0.8882359     2.654042  -0.02477069     16269.52
      8390.4    0.8896507     2.648399  -0.02469466     16269.65
      8390.6    0.8911077     2.643493  -0.02487294     16269.74
      8390.8    0.8926726     2.638663  -0.02321836     16270.05
        8391    0.8943072     2.634144  -0.02213796     16270.92
      8391.2    0.8961017     2.629824  -0.02132613     16272.18
      8391.4    0.8978936     2.625783  -0.02070078     16273.05
      8391.6    0.8996796     2.621603  -0.01996934     16273.21
      8391.8    0.9016083     2.617583  -0.01969248     16273.87
        8392     0.903513     2.613849  -0.01961418     16274.61
      8392.2    0.9055147     2.610029  -0.01923648     16275.32
      8392.4    0.9075833     2.605911  -0.01867003     16276.16
      8392.6    0.9097389     2.602194  -0.01748982     16276.55
      8392.8     0.911987     2.598913  -0.01637479     16277.24
        8393    0.9142332     2.596037  -0.01575417     16278.06
      8393.2    0.9165409     2.592811  -0.01532729     16278.63
      8393.4    0.9190619     2.589591  -0.01540132     16279.51
      8393.6    0.9218911     2.586651  -0.01449357     16280.92
      8393.8    0.9246135     2.583716  -0.01369285     16281.17
        8394    0.9275423     2.581216   -0.0131434     16282.09
      8394.2    0.9305732     2.578636  -0.01202284     16283.13
      8394.4    0.9335639     2.576136  -0.01115963     16283.47
      8394.6    0.9366997     2.574097 -0.009445518     16284.19
      8394.8    0.9399297     2.572289 -0.007724878     16284.75
        8395    0.9432769      2.57108 -0.006542263     16285.09
      8395.2    0.9466513     2.569956  -0.00565728     16285.33
      8395.4    0.9501188     2.568864 -0.005638533     16285.93
      8395.6    0.9537739     2.567763 -0.005461228     16286.82
      8395.8    0.9574108     2.566569  -0.00463402     16287.26
        8396    0.9610115     2.565587 -0.003689085     16288.29
      8396.2    0.9645901     2.565156 -0.002322384     16289.46
      8396.4    0.9681815     2.564812 -0.001333024     16290.28
      8396.6    0.9717808     2.564711 -0.001183327     16291.47
      8396.8    0.9753972     2.564521 -0.0005236624     16292.74
        8397    0.9789396      2.56421 -0.0003481443     16293.55
      8397.2    0.9823752     2.564393 4.467705e-05      16294.3
      8397.4    0.9857328     2.564433  0.000395353     16294.89
      8397.6    0.9891349     2.564557 0.0004441849     16295.15
      8397.8     0.992511     2.564526 0.0001274795     16295.34
        8398    0.9957103     2.564748 0.0004405553     16295.34
      8398.2    0.9988529     2.564535 0.0007341712     16295.93
      8398.4      1.00201     2.564909 -3.666627e-05     16296.01
      8398.6     1.005171     2.565113 -0.0001213719     16296.55
      8398.8      1.00836     2.564719 -0.0008388937     16297.16
        8399     1.011534     2.564438 -0.0009747512     16297.66
      8399.2     1.014636     2.564238 -0.001185948     16298.23
      8399.4     1.017653     2.564334 -0.001319044     16299.38
      8399.6     1.020436      2.56377 -0.002272909     16299.61
      8399.8     1.023301     2.563382 -0.003071584     16300.26
        8400     1.026207     2.562836 -0.003215889        16301
        8401     1.040829     2.559501 -0.003040683     16304.34
        8402     1.056175     2.556185 -0.002624044     16307.67
        8403     1.071479     2.553457 -0.001571361      16310.8
        8404     1.086122      2.55234 7.100338e-05     16314.97
        8405     1.098519     2.553215   0.00217448     16319.16
        8406      1.10756     2.556469  0.004539636     16323.38
        8407     1.111981     2.562155   0.00610052     16326.82
        8408     1.111978     2.570499  0.006854161     16332.82
        8409     1.107946     2.577617  0.006817489     16337.81
        8410     1.101727     2.583886  0.006263654     16342.36
        8411      1.09428     2.589425  0.006035624     16345.62
        8412     1.085719     2.595553  0.006382724     16348.27
        8413     1.077075      2.60176  0.007536441     16353.28
        8414     1.068428     2.609417  0.008766616     16358.52
        8415     1.059745     2.619571    0.0101239     16362.63
        8416     1.051437      2.63062   0.01098279     16365.96
        8417     1.043816     2.642255   0.01113609     16371.07
        8418     1.036392     2.653348   0.01098079     16376.48
        8419     1.029115     2.664115    0.0106694     16380.81
        8420     1.022074     2.674543   0.01062315     16383.91
        8421     1.015465     2.684933   0.01095513      16387.7
        8422     1.009133     2.695841   0.01170943     16391.82
        8423     1.003133     2.707936   0.01257537     16394.75
        8424    0.9975004      2.72138   0.01351742     16396.49
        8425    0.9926654     2.735234   0.01385022     16398.16
        8426    0.9880024      2.74991   0.01399303     16400.85
        8427    0.9831865     2.763337   0.01352267     16404.51
        8428    0.9783982     2.777353   0.01227279     16407.74
        8429    0.9743984     2.789325   0.01027561     16410.88
        8430    0.9716149     2.799001  0.007466341     16414.26
        8431    0.9701352     2.804439  0.003870608     16419.44
        8432     0.969994     2.807218 4.747651e-05     16424.34
        8433    0.9709017     2.804807 -0.003830131     16428.06
        8434    0.9722877     2.799191 -0.007604543     16432.39
        8435    0.9741242     2.789119   -0.0105719     16435.86
        8436    0.9762517       2.7768  -0.01314431      16439.6
        8437    0.9784837      2.76252  -0.01479877     16442.25
        8438    0.9805696     2.746614  -0.01593139     16445.32
        8439    0.9823986     2.729923  -0.01687147     16449.58
        8440    0.9838881     2.713074  -0.01712823     16455.53
        8441     0.985519     2.695034  -0.01724359     16459.81
        8442    0.9869685     2.678101  -0.01706972     16463.27
        8443    0.9883249     2.660949   -0.0160685      16467.2
        8444      0.98963     2.644795  -0.01485326     16470.76
        8445    0.9910996      2.63076  -0.01316737     16473.91
        8446    0.9925036     2.618688  -0.01184139     16477.03
        8447    0.9939479      2.60828  -0.01089316     16479.15
        8448    0.9950387      2.59743  -0.01108574     16483.24
        8449    0.9952868     2.587187   -0.0121456     16488.11
        8450     0.995597     2.574345  -0.01321097     16492.26
        8451    0.9956373     2.559697  -0.01469968     16496.77
        8452     0.995318     2.544586  -0.01545743     16500.47
        8453    0.9950313     2.528389  -0.01555368     16504.74
        8454    0.9951735     2.512515  -0.01507429     16508.56
        8455     0.995258     2.497482  -0.01378437     16510.68
        8456    0.9954797     2.484289  -0.01193121     16515.69
        8457    0.9954963     2.473251 -0.009514138     16520.02
        8458    0.9954452     2.464791 -0.006600586     16523.87
        8459    0.9953457     2.459426 -0.003486822     16527.82
        8460    0.9951432     2.457886 -0.0004229478     16531.19
        8461    0.9951695     2.459304   0.00220294     16535.28
        8462    0.9952764     2.463099  0.004537896     16539.59
        8463    0.9946826     2.468238  0.006771938     16542.88
        8464    0.9931992     2.476038  0.008327499     16544.76
        8465    0.9911449     2.486392  0.009756881     16549.18
        8466    0.9885117     2.496409   0.01063507     16553.01
        8467     0.985203     2.507265   0.01084435     16557.28
        8468    0.9808838     2.518578   0.01143882     16560.73
        8469    0.9757355     2.529769    0.0111915     16564.01
        8470    0.9700589     2.542164   0.01064216     16566.48
        8471     0.964696     2.552031  0.009544548     16569.31
        8472    0.9597984     2.561147  0.007742455     16571.98
        8473    0.9558528     2.567947  0.005919097     16575.56
        8474    0.9529053     2.573134  0.003709381     16579.97
        8475    0.9512095     2.575708  0.001827641      16583.7
        8476    0.9507728     2.575984 -0.0001064307        16587
        8477    0.9515044     2.575258 -0.001377765      16589.3
        8478    0.9533389     2.572708 -0.002336134     16591.11
        8479     0.956632     2.570197 -0.002432827     16595.23
        8480       0.9612      2.56664 -0.001860689     16600.06
        8481    0.9669968     2.565526 -0.0005505491      16606.5
        8482    0.9737465     2.565265  0.001817888     16611.23
        8483    0.9803278     2.567994   0.00468888     16615.98
        8484    0.9871162     2.573911  0.008155883     16620.03
        8485    0.9937561     2.584282   0.01176773     16622.03
        8486    0.9999911     2.597889   0.01522519     16623.87
        8487     1.006279     2.615065   0.01763192     16627.39
        8488     1.011789     2.634812   0.01924908     16631.24
        8489     1.016508      2.65481   0.01970696     16633.21
        8490     1.020795     2.674885   0.01895791     16637.46
        8491     1.024264     2.693893    0.0176909        16643
        8492     1.026623     2.710644    0.0155898      16648.5
        8493     1.027817     2.725573   0.01295276     16652.62
        8494     1.028098     2.737244   0.01044444     16655.42
        8495     1.027744     2.745704  0.007582156     16657.66
        8496      1.02719     2.752422  0.005446842     16661.31
        8497     1.026572     2.755902   0.00345172     16664.44
        8498     1.026173     2.759032   0.00188878     16667.61
        8499      1.02552     2.759511  0.000639287     16669.11
        8500     1.025017     2.759977 -0.000995993     16672.26
        8501     1.025041     2.758459 -0.002414889     16677.83
        8502     1.025229     2.755048 -0.004319379      16682.6
        8503     1.025972     2.749852 -0.006338099     16687.43
        8504      1.02683     2.742699 -0.008559863      16690.7
        8505     1.028146     2.733107  -0.01068429      16694.7
        8506     1.029451     2.720808  -0.01289645     16697.78
        8507     1.030888     2.707114   -0.0149795     16700.63
        8508     1.032358     2.691113  -0.01668614     16704.63
        8509     1.034072     2.673189  -0.01850763     16708.08
        8510     1.035777     2.654064  -0.01994553     16711.59
        8511      1.03741     2.633084  -0.02137326      16716.8
        8512     1.038914     2.611331  -0.02258036     16721.46
        8513      1.04106     2.587696  -0.02334762     16725.45
        8514     1.044583     2.563742  -0.02412047     16726.96
        8515     1.047446     2.539693  -0.02424035     16712.64
        8516     1.047908     2.514849  -0.02418178     16690.36
        8517     1.048172     2.490734  -0.02345413     16684.72
        8518     1.046923     2.467015  -0.02197102     16683.67
        8519     1.044862     2.445877  -0.02005882     16684.08
        8520     1.043494     2.426965  -0.01739298     16684.53
        8521     1.041085     2.410499   -0.0146225     16686.67
        8522     1.037881     2.397443  -0.01120407     16691.17
        8523     1.035045     2.387387   -0.0076952     16695.68
        8524     1.033335     2.382149 -0.004049804     16702.85
        8525      1.03226     2.379718 -0.0005280117     16705.99
        8526     1.028491     2.381244  0.002523483     16708.14
        8527     1.022493     2.385275  0.005540113     16711.63
        8528     1.017616     2.392243  0.008007362     16720.44
        8529     1.012717     2.401879   0.01010344     16726.35
        8530     1.007563     2.413274   0.01151611     16728.37
        8531     1.003214     2.425688    0.0124677     16729.76
        8532    0.9999816     2.438307   0.01283895     16734.02
        8533    0.9959491     2.451749   0.01280617     16736.39
        8534    0.9901898     2.464629   0.01270278     16739.03
        8535    0.9858561     2.476913   0.01195831     16745.33
        8536    0.9821504     2.489119   0.01109173     16749.16
        8537    0.9785578     2.499583    0.0102176      16752.8
        8538    0.9768885     2.508996  0.008834023     16751.61
        8539    0.9746734     2.517784  0.007775962     16753.56
        8540    0.9714863     2.524455  0.006579768     16762.18
        8541    0.9706406     2.530686  0.005108564     16766.53
        8542    0.9706489     2.535315  0.003797256      16768.4
        8543    0.9710938     2.538218  0.002158417     16772.81
        8544    0.9728862     2.539644 0.0007504211        16780
        8545    0.9756946      2.53932 -0.0001614433     16783.06
        8546    0.9778768     2.538317 -0.001105298     16785.53
        8547    0.9796989     2.537572 -0.001758172      16788.7
        8548    0.9821479     2.535223 -0.002103121     16793.09
        8549     0.984483     2.532287  -0.00262925     16798.13
        8550    0.9874081     2.529905 -0.002708037     16801.51
        8551    0.9901629     2.527055 -0.002720593     16807.34
        8552    0.9928076      2.52439 -0.002989125     16808.88
        8553    0.9962466     2.521405 -0.003187558     16811.75
        8554    0.9995897     2.517948 -0.003443488     16815.78
        8555     1.001722     2.514305 -0.003713344     16819.89
        8556     1.004136     2.510616 -0.003861184     16823.66
        8557     1.006097     2.506552   -0.0040983     16827.12
        8558      1.00763     2.502503 -0.004318005     16833.18
        8559     1.008841     2.497912 -0.004081935     16835.94
        8560     1.009412     2.493344  -0.00373932     16835.29
        8561     1.009918     2.490224 -0.002915847     16837.82
        8562     1.010471     2.487546 -0.001662866      16844.5
        8563     1.011651     2.486248 -0.0004028658      16849.4
        8564     1.012994     2.486693  0.001265899     16852.25
        8565     1.013633     2.488612  0.003070567      16856.4
        8566     1.013351      2.49261  0.004984856     16862.45
        8567     1.013023      2.49853  0.006685588     16864.66
        8568     1.012977     2.506632  0.008056314     16865.27
        8569     1.012342     2.515355  0.009057614     16869.64
        8570     1.012288     2.524835  0.009480312     16875.72
        8571     1.013203     2.534761  0.009455046     16882.07
        8572       1.0145     2.544554  0.009054428     16890.92
        8573     1.015584     2.553175   0.00844684     16897.01
        8574     1.016944     2.561053  0.007602884     16898.93
        8575     1.017934     2.568548  0.006844061     16900.38
        8576     1.017551     2.574965  0.005950034     16905.34
        8577     1.017115     2.580551  0.005065251        16909
        8578     1.017523     2.584853  0.004190871      16914.8
        8579     1.017868     2.588809  0.003270403     16920.33
        8580     1.017964     2.591729  0.002483836     16924.65
        8581     1.017611     2.593633  0.001385795     16929.22
        8582     1.017275     2.594788 0.0003714871     16934.02
        8583     1.017684     2.594352 -0.0007412309     16938.37
        8584     1.018209     2.593215 -0.001967459     16939.38
        8585     1.018966     2.590668 -0.003008246     16939.92
        8586     1.019288     2.586918 -0.004280065     16941.89
        8587     1.019478     2.582319 -0.005424938     16943.15
        8588      1.01999     2.576094 -0.006768257     16944.28
        8589     1.020359     2.568968 -0.007937605     16948.36
        8590     1.020522     2.559845 -0.008906805      16956.5
        8591     1.019854     2.550569 -0.009809563     16960.79
        8592     1.017905     2.540467  -0.01043959     16961.17
        8593     1.016212      2.52973  -0.01120243     16961.38
        8594     1.015096     2.518087   -0.0115788     16965.31
        8595     1.013367     2.505759  -0.01168554     16969.41
        8596     1.010861     2.494152  -0.01157183     16972.06
        8597     1.008947     2.482988   -0.0111694     16974.24
        8598     1.007327       2.4718  -0.01094125     16975.62
        8599     1.005716     2.461082  -0.01051492     16979.69
        8600     1.004121     2.450387  -0.01002166      16985.8
        8601     1.002563     2.440928 -0.009139586     16990.35
        8602     1.000785     2.431713 -0.008251448     16990.83
        8603    0.9995149     2.424523 -0.007300824     16994.41
        8604    0.9986923     2.417381 -0.006223122     17001.72
        8605    0.9982529     2.411725  -0.00533707     17009.29
        8606    0.9981268      2.40682 -0.004373067      17012.5
        8607    0.9979259     2.403175 -0.003588687     17016.21
        8608    0.9973944     2.399889 -0.002563699      17020.6
        8609    0.9960516      2.39737 -0.001837118     17023.47
        8610    0.9948178     2.396566 -0.001137103     17027.75
        8611    0.9940722     2.395827 -0.0004539169     17031.54
        8612    0.9937546      2.39534 -0.0003576527     17036.21
        8613      0.99304     2.395554 -9.36369e-05     17038.09
        8614    0.9922982     2.395135 -1.874387e-05     17040.45
        8615    0.9912952     2.395452 -6.222154e-05     17045.23
        8616    0.9905178     2.395265 -4.70196e-05     17046.67
        8617    0.9901067     2.395306 -0.0001854814     17048.49
        8618    0.9892951     2.394947 -0.0001905753     17050.02
        8619     0.988581      2.39471 -0.0002426322     17050.58
        8620    0.9884991     2.394503 -0.0002302962     17050.44
        8621    0.9890468     2.394335 -0.0005155355     17045.34
        8622    0.9907778     2.394026 -0.0003045633     17025.95
        8623    0.9933237     2.392648 -0.0004076381     16941.27
        8624    0.9931462     2.393285 -0.000346083     16803.88
        8625    0.9937742     2.392704 -0.0001423575     16836.28
        8626    0.9936367     2.392641 -0.0003595337     16897.78
        8627    0.9963625     2.392079 -0.0001285245     17048.63
        8628    0.9981121     2.391847 -7.761227e-05     17084.12
        8629    0.9994055      2.39219 0.0003271162     17094.27
        8630     1.000838     2.392331 0.0006525842     17099.15
        8631     1.002107     2.393387  0.000920511      17105.8
        8632     1.003643     2.394457   0.00123357     17112.06
        8633     1.004439     2.395872   0.00160637     17114.22
        8634     1.005152     2.397265  0.001762087     17116.36
        8635     1.005702     2.399813  0.001947066     17119.64
        8636     1.005161     2.401505  0.002182331      17125.2
        8637     1.004586     2.403661  0.002106099      17130.6
        8638     1.005123     2.405995  0.002250445     17134.03
        8639     1.005262     2.408237  0.002215571     17134.98
        8640     1.005227     2.410507  0.002108452     17137.75
        8641     1.005069     2.412523  0.001970776     17139.88
        8642     1.004981     2.414428  0.001744916     17141.27
        8643     1.005373      2.41612  0.001614262     17143.87
        8644     1.006184     2.417487  0.001541342     17147.41
        8645     1.006984      2.41898  0.001349397     17149.25
        8646     1.006745     2.420594  0.001150163     17154.43
        8647     1.006902     2.421518  0.001025473     17159.32
        8648     1.007949     2.422088 0.0008844527     17164.08
        8649     1.009256     2.423082 0.0009265884     17168.74
        8650      1.01031     2.424132 0.0008751605      17173.9
        8651     1.011152     2.425224 0.0007451114     17178.94
        8652     1.012764     2.425588 0.0007639885     17183.96
        8653     1.014078     2.426062 0.0006377889     17187.01
        8654     1.014349     2.427188 0.0007371375     17189.65
        8655     1.014152     2.427775 0.0009570491     17192.35
        8656     1.014298     2.428537 0.0009360319     17198.87
        8657     1.014288     2.429891  0.001048793     17200.78
        8658      1.01463     2.430932  0.001109033     17204.94
        8659     1.014609      2.43197  0.001204468     17208.18
        8660      1.01452     2.432973  0.001267506     17209.89
        8661     1.014522     2.434708  0.001452274      17213.6
        8662     1.013734     2.436002  0.001628964     17216.65
        8663      1.01266     2.437779  0.001610101     17221.16
        8664     1.012567     2.439489  0.001651138      17223.7
        8665     1.012323     2.441149  0.001437077     17224.58
        8666     1.011554     2.442606  0.001335185     17226.46
        8667     1.010558     2.443528 0.0009079802     17230.86
        8668     1.008948     2.444829 0.0005360397     17235.53
        8669     1.007777     2.444781 0.0001136874     17238.97
        8670     1.006816      2.44475 -0.000419706      17243.1
        8671     1.005231     2.443982 -0.0008304513     17247.05
        8672      1.00341     2.443151 -0.001349752     17249.46
        8673     1.001343     2.441459 -0.001872839     17251.82
        8674    0.9998024     2.439351 -0.002442068     17256.48
        8675    0.9987882     2.436491 -0.002802095     17258.79
        8676    0.9978773     2.433382 -0.003163786     17260.91
        8677    0.9962124     2.430251 -0.003443053      17265.3
        8678    0.9943593     2.426696 -0.003705986     17269.01
        8679    0.9930291     2.422719  -0.00403677     17275.12
        8680    0.9918364     2.418558 -0.004213926     17277.54
        8681    0.9909314     2.414103 -0.004363486     17281.65
        8682    0.9905121     2.409841 -0.004501085     17286.41
        8683     0.990376     2.405265 -0.004535221     17289.32
        8684     0.989995     2.400554 -0.004602078     17290.41
        8685    0.9900178     2.395963 -0.004473653     17292.75
        8686    0.9896584     2.391432 -0.004379893     17293.67
        8687    0.9892371      2.38737 -0.004296871     17296.41
        8688     0.989481     2.383035 -0.004014311     17299.14
        8689    0.9898641     2.378775 -0.003770384     17302.62
        8690    0.9903353     2.375375 -0.003375071     17306.19
        8691    0.9909578     2.372289  -0.00292807      17310.3
        8692    0.9910418     2.369534 -0.002446757     17312.65
        8693    0.9907485     2.367063   -0.0019505     17315.73
        8694    0.9910099     2.365588 -0.001414951     17320.13
        8695    0.9915545     2.364487 -0.0009226753     17323.81
        8696    0.9918408     2.363874 -0.0007814813      17327.4
        8697    0.9924178     2.363372 -0.0005220223     17327.05
        8698    0.9927241     2.362462 -0.0004843209     17313.93
        8699    0.9922753     2.362399 -0.0005053568     17302.24
        8700    0.9916561     2.361937 -0.0004803797     17308.75
        8701    0.9913458     2.361351 -0.0006268999     17320.55
        8702    0.9909071     2.360541 -0.0009486801     17334.46
        8703    0.9907856     2.359891 -0.001155335     17342.92
        8704    0.9910024     2.358142 -0.001469801     17347.51
        8705    0.9909999     2.356729 -0.001888054     17348.16
        8706    0.9911487     2.354661 -0.002169593     17339.42
        8707    0.9910155     2.352339 -0.002590104     17330.15
        8708    0.9912822     2.349464 -0.003030493     17335.23
        8709    0.9914786     2.346369 -0.003411318     17345.81
        8710    0.9912461     2.342539 -0.003682513     17357.21
        8711    0.9911046     2.338694 -0.003843486     17365.54
        8712    0.9906823     2.334734 -0.003789339     17370.68
        8713    0.9904601     2.330995 -0.003659219     17376.11
        8714     0.990514     2.327382 -0.003431932     17379.09
        8715    0.9907742     2.324057 -0.003096818     17383.73
        8716     0.991244     2.321006 -0.002828987     17388.62
        8717    0.9917797     2.318608 -0.002354797     17392.76
        8718    0.9920951     2.316066 -0.001844778     17396.12
        8719    0.9923913     2.314638  -0.00137031     17401.53
        8720    0.9927463     2.313627 -0.0008970817     17405.27
        8721    0.9934038     2.313126 -0.0006235646     17408.45
        8722    0.9940133     2.312478 -0.0004715823     17409.55
        8723    0.9947025     2.312143 -0.0005028132      17411.9
        8724    0.9951027     2.311741 -0.0005280213     17415.86
        8725    0.9957222     2.311115 -0.0006071577     17419.44
        8726    0.9961135     2.310366 -0.0005618496     17423.16
        8727    0.9962293     2.309715 -0.000591946     17427.57
        8728    0.9965038     2.309493 -0.0004178758     17431.09
        8729    0.9968489     2.308747 -0.0003204674     17433.99
        8730    0.9967507     2.308694 -0.0004298883      17435.4
        8731    0.9971114     2.308433 -0.0001246835     17437.91
        8732    0.9977645     2.307774 -0.0001271806     17441.22
        8733    0.9989788     2.308249 -3.944185e-05     17447.29
        8734     1.000041     2.308185 0.0001049144     17452.58
        8735     1.000522     2.308275 -4.066493e-05     17455.99
        8736     1.000809     2.308194 -3.493822e-05     17457.45
        8737     1.001499     2.308086 4.591491e-05     17461.05
        8738      1.00268     2.308046  0.000165571     17466.14
        8739     1.003591     2.308459 0.0002275188     17470.52
        8740     1.004386     2.308856 0.0003836618     17474.17
        8741     1.005309     2.308996 0.0002738885     17474.61
        8742     1.006223      2.30958 0.0003862295     17475.16
        8743     1.007166     2.309554 0.0004552342     17478.73
        8744     1.007893     2.310401 0.0004619108     17480.83
        8745     1.008788     2.310817 0.0005359213      17485.5
        8746     1.009064     2.311428 0.0004239884     17488.85
        8747     1.008777     2.311698 0.0004748941     17490.23
        8748      1.00832     2.312097 0.0004223858     17491.17
        8749     1.008217     2.312717 0.0005045654     17492.97
        8750     1.008136     2.313117 0.0005799193     17496.29
        8751     1.008285     2.313716 0.0005285378     17499.97
        8752     1.008309     2.314416  0.000531663     17502.08
        8753     1.007698     2.314831 0.0004745493     17505.55
        8754     1.008082     2.315244 0.0003741358     17510.38
        8755     1.008805     2.315614 0.0002704086     17514.07
        8756     1.008227     2.315913 0.0003093919     17516.53
        8757     1.007093     2.315912 0.0002986239     17518.87
        8758     1.006324     2.316482 0.0002548619     17520.26
        8759     1.005552     2.316809 0.0003742003     17522.98
        8760     1.004915     2.316932  0.000305209     17529.07
        8761     1.003821     2.317409 0.0002308657      17533.7
        8762     1.002305     2.317703 0.0002030335     17538.41
        8763     1.000931     2.317732 0.0001325334     17542.13
        8764    0.9996702     2.317744 0.0001834076     17544.94
        8765    0.9986435     2.317939 0.0001453072     17547.26
        8766    0.9981902     2.318436 0.0002191654      17550.6
        8767    0.9977361     2.318314  0.000130989     17553.04
        8768    0.9966731     2.318621 0.0001136684     17555.37
        8769    0.9956532     2.318463 1.631489e-05     17559.27
        8770    0.9950778     2.318891 -9.973135e-05     17562.04
        8771    0.9942727     2.318379 -0.0001180821     17565.33
        8772    0.9933898     2.318222 -0.0003650328     17568.21
        8773    0.9924741     2.317991 -0.000289146     17571.52
        8774    0.9915512     2.317431 -0.0005171714     17574.79
        8775    0.9912138     2.317222 -0.0005778199     17578.19
        8776    0.9913076     2.316154 -0.0006765926     17580.41
        8777    0.9915237      2.31568 -0.0009038725     17581.83
        8778    0.9918337     2.314724 -0.0009474946     17582.69
        8779    0.9920039     2.313607 -0.001124029     17584.49
        8780    0.9919281     2.312364 -0.001373713     17586.98
        8781    0.9921661     2.311184  -0.00147865     17591.14
        8782    0.9929662     2.309229 -0.001608403     17595.65
        8783    0.9935699     2.307692 -0.001886569     17598.11
        8784    0.9944024      2.30593 -0.001967959     17599.76
        8785    0.9951022     2.303637 -0.002233956     17601.73
        8786    0.9951142     2.301358 -0.002428565     17604.18
        8787    0.9948819     2.298756  -0.00250508     17606.87
        8788    0.9948209     2.296216 -0.002644471     17607.38
        8789    0.9951679     2.293617 -0.002614849     17608.81
        8790    0.9958481      2.29078 -0.002596191     17612.86
        8791    0.9961719     2.288297 -0.002511585     17617.06
        8792    0.9961535     2.285831 -0.002480733     17621.47
        8793     0.996084     2.283571  -0.00242475     17624.85
        8794    0.9964054     2.280857 -0.002353004     17627.75
        8795    0.9964782     2.278598 -0.002296207     17629.65
        8796    0.9961017     2.276419 -0.001990924     17632.04
        8797     0.995653     2.274386 -0.001849804     17633.77
        8798      0.99536     2.272893 -0.001722074     17635.76
        8799    0.9947291     2.271199 -0.001614327     17636.86
        8800    0.9938936     2.269531 -0.001518123     17638.69
        8801    0.9936028     2.267928  -0.00136346     17642.18
        8802    0.9935228     2.266821 -0.001199128     17644.77
        8803    0.9936833     2.265745 -0.001011377     17647.43
        8804    0.9939751     2.264734 -0.0008890059     17651.35
        8805    0.9940373     2.263883 -0.0009041742     17654.93
        8806     0.993665     2.263265 -0.0006421112     17656.94
        8807    0.9938211     2.262128 -0.0005989091     17660.01
        8808    0.9938555     2.262166 -0.0006573369      17662.5
        8809    0.9943244     2.261487 -0.0004863932     17666.08
        8810    0.9950745     2.260635 -0.0006003478     17669.36
        8811      0.99529     2.260183 -0.0006680051     17672.05
        8812    0.9946194     2.259764 -0.0004990433     17674.07
        8813     0.994404     2.258815 -0.0005851794     17675.25
        8814     0.994406     2.258639 -0.000712325     17678.26
        8815    0.9946177     2.257842 -0.0006136575     17682.92
        8816    0.9947314     2.256915 -0.0007647986     17685.59
        8817    0.9952447     2.256361 -0.0007909526      17689.3
        8818    0.9955053      2.25558 -0.0008476584      17691.4
        8819    0.9960672     2.254678  -0.00100096     17694.67
        8820    0.9962615     2.253524 -0.0009954816     17696.11
        8821    0.9960121     2.252357 -0.001139203     17695.98
        8822    0.9960125     2.251598  -0.00120381      17697.1
        8823    0.9961243     2.250121 -0.001281925     17696.53
        8824    0.9964201     2.248709 -0.001478844     17695.72
        8825    0.9966695     2.247229 -0.001573033     17695.55
        8826    0.9964355     2.245683 -0.001600026     17692.96
        8827    0.9959608     2.243829 -0.001691883     17687.58
        8828    0.9959904     2.242309 -0.001826719     17679.32
        8829    0.9962022     2.240462 -0.001947539     17661.07
        8830    0.9971245     2.238376  -0.00187367     17615.59
        8831    0.9992088     2.236039 -0.001501737     17475.45
        8832     1.000331     2.234814 -0.001687856     17199.82
        8833    0.9957737     2.234455 -0.001278182     17209.47
        8834    0.9989876     2.231624 -0.001146168     17335.52
        8835    0.9988441     2.230926 -0.001587841     17223.78
        8836    0.9964841      2.23023 -0.001234526     17466.41
        8837    0.9986015     2.228103  -0.00140086     17695.15
        8838    0.9995346     2.226686 -0.001515264     17747.79
        8839    0.9997777     2.225323 -0.001252694      17761.6
        8840     1.000185     2.224169 -0.001103401     17766.82
        8841     1.000418     2.223093 -0.001044083     17769.97
        8842      1.00085     2.222273 -0.001018236     17773.24
        8843     1.001037     2.221146 -0.001073118     17775.94
        8844     1.000942     2.220096 -0.001122755     17778.95
        8845     1.001104       2.2188 -0.001103757     17781.36
        8846      1.00148     2.217782 -0.001140122     17783.85
        8847     1.001879     2.216731 -0.001090949     17785.41
        8848     1.002363     2.215535 -0.001162071     17789.44
        8849     1.002655     2.214436 -0.001052571     17793.28
        8850     1.002774     2.213133 -0.001038413     17797.02
        8851     1.002881     2.212521 -0.0009948793     17799.37
        8852     1.003179     2.211381 -0.0009763814     17801.06
        8853      1.00353     2.210457 -0.0009876578     17803.36
        8854     1.003249     2.209228 -0.0009173805     17805.12
        8855     1.002634     2.208571 -0.0008724753     17807.51
        8856       1.0019     2.207712 -0.0006836195     17809.81
        8857     1.001171     2.206967 -0.0006559661     17812.24
        8858     1.000726     2.206493 -0.0005817679     17814.28
        8859     1.000313     2.205947  -0.00052039     17817.59
        8860    0.9999722     2.205385 -0.0004933181     17821.33
        8861    0.9998404     2.204885 -0.0005124204     17827.59
        8862    0.9994751      2.20452 -0.000361723     17833.25
        8863      0.99847     2.203897 -0.0002429352     17836.83
        8864    0.9973347     2.203938 -0.0001994524     17837.46
        8865    0.9967184     2.203914 -1.653759e-05     17839.55
        8866    0.9963056     2.203722 -6.462332e-05      17842.3
        8867    0.9957341     2.203831 -0.0001065563     17843.71
        8868    0.9953981      2.20368 -8.181455e-06      17845.5
        8869    0.9953893     2.203487 -9.155812e-05     17848.03
        8870     0.995279     2.203689 -3.666683e-05     17850.69
        8871    0.9955718     2.203465 3.983222e-05     17854.57
        8872    0.9954458     2.203533 -6.319757e-05     17857.13
        8873    0.9953689     2.203647 0.0001073113     17861.76
        8874    0.9951073     2.203437 0.0001208695     17864.63
        8875    0.9950839     2.203894  0.000138162     17867.97
        8876    0.9950398     2.204016 0.0002719693     17870.59
        8877    0.9945831     2.204199 0.0001446798      17871.7
        8878    0.9943988     2.204525 0.0001908757     17873.43
        8879    0.9944141     2.204473  0.000217769      17876.4
        8880    0.9944729      2.20478 0.0002687162     17880.77
        8881    0.9944778      2.20507 0.0002825581     17883.99
        8882      0.99428     2.205599 0.0003299687     17886.22
        8883    0.9942012     2.205603 0.0003143701     17887.82
        8884    0.9941377       2.2061 0.0002185978      17889.8
        8885    0.9939752     2.206328 0.0002573519     17892.22
        8886    0.9937234     2.206474 0.0001737091     17895.53
        8887    0.9935887     2.206632  0.000158755     17899.18
        8888     0.993706     2.206795 0.0002843819     17902.52
        8889    0.9937445     2.206963 3.838138e-05     17905.95
        8890    0.9933597     2.207611 2.038335e-05     17908.58
        8891    0.9933424     2.206786 -0.0001096743     17911.55
        8892    0.9934854     2.206876 -0.0003129862     17913.51
        8893    0.9936914     2.206524 -0.000222872     17915.33
        8894    0.9937446     2.206359 -0.0004503802     17917.36
        8895    0.9939106     2.205894 -0.0004834781     17921.46
        8896    0.9940132     2.205075 -0.0007238605      17924.3
        8897    0.9944233      2.20459 -0.0007925966     17926.48
        8898    0.9951927     2.203464 -0.0008857184     17929.51
        8899    0.9959033     2.202724 -0.001039326      17931.9
        8900    0.9959223     2.201532 -0.001098238     17934.71
        8901    0.9959185     2.200433 -0.001254114     17937.86
        8902    0.9958627     2.199071 -0.001468506     17940.91
        8903     0.995925     2.197707 -0.001616322     17943.45
        8904    0.9960527     2.195658 -0.001631852     17946.24
        8905     0.996272     2.193968 -0.001770818     17948.21
        8906     0.996302     2.192544  -0.00167778     17949.45
        8907    0.9961243     2.190624 -0.001731362     17952.14
        8908    0.9961553     2.188947  -0.00180611     17955.64
        8909     0.996252     2.187042 -0.001727869     17957.87
        8910    0.9963473     2.185319 -0.001682508     17961.39
        8911     0.996299     2.183713 -0.001668654      17965.4
        8912    0.9962057     2.182216 -0.001703496     17969.53
        8913    0.9961205     2.180368 -0.001680725      17970.9
        8914    0.9959338     2.178505 -0.001684268     17973.13
        8915    0.9955072      2.17699 -0.001552923     17974.58
        8916    0.9953738     2.175479 -0.001462432     17977.08
        8917    0.9955943     2.174156    -0.001364     17979.29
        8918    0.9956893     2.172655 -0.001271686     17981.72
        8919    0.9957538     2.171534 -0.001332043     17984.82
        8920    0.9957786     2.170393  -0.00119794     17988.09
        8921    0.9957626     2.168828 -0.001233979     17990.54
        8922    0.9958944     2.167864 -0.001223965     17993.23
        8923    0.9959084     2.166598 -0.001042643     17996.05
        8924    0.9960386     2.165497 -0.001071101     17998.74
        8925    0.9962113     2.164657 -0.0009865289     18001.85
        8926    0.9964538     2.163579 -0.001027867     18005.21
        8927    0.9968407     2.162652 -0.0009720156     18007.84
        8928    0.9973523     2.161385 -0.000942367     18008.28
        8929    0.9977555     2.160769 -0.0009143427     18009.67
        8930    0.9984933      2.15981 -0.0009330246     18012.87
        8931    0.9993477     2.158994 -0.000905893     18015.38
        8932     1.000139     2.157653 -0.0007851435     18019.83
        8933     1.000399     2.157146 -0.0008720811     18022.25
        8934     1.000473     2.156669 -0.0006744628     18025.19
        8935     1.000392     2.155506 -0.0008209842     18026.38
        8936     1.000846     2.154955 -0.0008346805     18023.11
        8937     1.001697     2.153862 -0.0007309451      17998.4
        8938     1.001959     2.153331 -0.0007334912      17945.1
        8939      1.00166     2.152582 -0.0006394878     17928.46
        8940     1.001499     2.152021 -0.0007295327     17950.49
        8941     1.001584     2.151304 -0.0007440629     18005.84
        8942     1.002037     2.150412 -0.0008724267     18028.34
        8943     1.002106     2.149606 -0.0008938899     18036.33
        8944     1.002052     2.148532 -0.0008302305     18041.65
        8945     1.002198     2.147728 -0.0009011917     18047.43
        8946     1.002412     2.147091 -0.0007891248     18052.82
        8947     1.002544     2.146001 -0.0008716691     18055.37
        8948     1.002634     2.145375 -0.0008866228     18058.67
        8949     1.002628     2.144241 -0.000900575     18060.21
        8950     1.002894     2.143545 -0.0008806709     18062.04
        8951     1.003343     2.142399 -0.0008767677     18064.07
        8952     1.003685     2.141853 -0.0009149143     18067.23
        8953     1.003834     2.140734 -0.0008810524     18069.14
        8954      1.00394     2.139885 -0.0009031348     18072.85
        8955     1.003411     2.138875 -0.0008525101     18075.62
        8956     1.002771      2.13824 -0.0009092107     18077.55
        8957      1.00233     2.137324 -0.0007641151     18078.57
        8958     1.002125     2.136248 -0.0009159909     18080.86
        8959     1.001754     2.135818 -0.0008785902     18084.13
        8960     1.001638     2.134576 -0.000858805      18085.2
        8961     1.001672      2.13381 -0.0009774509     18087.44
        8962     1.001496     2.132813 -0.0009205054     18090.92
        8963     1.001139     2.131908 -0.0009428341     18092.59
        8964     1.000832     2.130894 -0.0009399912     18095.94
        8965     1.000229     2.130039 -0.0009695871     18100.29
        8966    0.9999179     2.129053 -0.001025106     18103.56
        8967    0.9997445      2.12803 -0.001024109     18105.29
        8968    0.9995839     2.126794 -0.001009326      18106.8
        8969     0.999485     2.125942   -0.0010387     18108.84
        8970    0.9993244     2.125016 -0.0009040806     18109.47
        8971     0.999482     2.123875 -0.0009275271     18114.34
        8972    0.9992909     2.123177 -0.0009411019     18118.94
        8973    0.9991707     2.122232 -0.0008809105     18121.82
        8974    0.9991264     2.121252 -0.0009400518     18123.75
        8975     0.999213     2.120352 -0.0009599277     18125.12
        8976     0.999177     2.119417 -0.0008604612     18127.33
        8977    0.9992083     2.118392 -0.0008995835     18129.24
        8978    0.9991687      2.11781 -0.0008079905     18130.33
        8979    0.9995792     2.116753 -0.0007166617     18132.11
        8980     0.999806     2.116185 -0.0007934393      18134.2
        8981    0.9998427     2.115526 -0.0007034947     18135.54
        8982     1.000003     2.114636 -0.0006556412     18136.55
        8983    0.9998459     2.113939 -0.0006720997     18137.48
        8984    0.9993893     2.113563 -0.0005687878     18139.44
        8985    0.9990698     2.112837 -0.0006074346      18142.2
        8986    0.9988647     2.112361 -0.0006487634     18143.89
        8987    0.9987682      2.11151 -0.0006155552     18146.16
        8988    0.9985952     2.110967 -0.0006365891     18148.57
        8989     0.998419     2.110375 -0.0005334957     18150.84
        8990    0.9982929     2.109814 -0.0005142101     18152.54
        8991     0.998231     2.109376 -0.0005758815      18152.6
        8992    0.9980098     2.108911 -0.0005553344     18153.95
        8993    0.9979291     2.108072 -0.0005610682     18156.15
        8994    0.9978951     2.107593 -0.0006243446     18158.27
        8995    0.9979722     2.107131 -0.0005225784     18160.83
        8996    0.9980931     2.106413 -0.0005065069     18163.72
        8997    0.9981736     2.105981 -0.0005182669     18166.28
        8998    0.9981528     2.105567 -0.0005087577     18168.72
        8999    0.9979922     2.105058 -0.0005950426     18169.84
        9000    0.9979104     2.104378 -0.0006026781     18172.55
        9001    0.9977398     2.103601 -0.000583025     18174.66
        9002    0.9975056     2.103156 -0.0005264445     18177.34
        9003    0.9974638     2.102726 -0.0005384453     18180.61
        9004    0.9973561     2.102272 -0.000520909     18183.88
        9005    0.9974021     2.101447 -0.0005048242     18186.49
        9006    0.9975252     2.101073 -0.0005354824     18189.18
        9007    0.9978286     2.100707 -0.0003996924     18192.04
        9008    0.9981897     2.100131 -0.0003921022     18194.67
        9009    0.9982436     2.099849 -0.0004184785     18196.72
        9010    0.9981762     2.099504 -0.0003358593     18197.51
        9011    0.9982485     2.099033 -0.0004009554     18199.44
        9012    0.9983693     2.098787 -0.0004258683     18201.24
        9013    0.9985048     2.098245 -0.0004402535     18202.76
        9014    0.9985799     2.097801 -0.0005130459     18204.55
        9015    0.9989399     2.097272  -0.00045564     18206.49
        9016    0.9995057     2.096735 -0.0004363614     18209.83
        9017    0.9998413     2.096422 -0.0003942842     18212.61
        9018    0.9997571     2.096055 -0.0004465782      18213.9
        9019    0.9995738     2.095695 -0.0005825279     18217.63
        9020    0.9989909     2.094949 -0.0005717395     18220.69
        9021     0.998821     2.094092 -0.0005940085     18223.81
        9022    0.9988083     2.093768 -0.0005368995     18226.04
        9023    0.9988786     2.093319 -0.0004924387     18229.03
        9024    0.9991932     2.092801 -0.0005512204     18232.46
        9025    0.9994193     2.092122 -0.0005808941     18233.64
        9026     0.998936     2.091564 -0.000661795     18234.61
        9027    0.9985113     2.090995 -0.0006489468      18237.6
        9028    0.9985074     2.090154 -0.0007354129     18240.98
        9029    0.9984926     2.089526 -0.0006695621     18244.24
        9030    0.9985387     2.088622 -0.0006659426     18246.78
        9031    0.9984441     2.088317 -0.0007020442     18248.18
        9032    0.9984254      2.08749 -0.0006569613     18249.58
        9033    0.9982828     2.086718 -0.0007900906     18250.65
        9034    0.9983634     2.085994 -0.0007660403     18252.82
        9035    0.9984096     2.085157 -0.0008237154     18255.59
        9036    0.9984924     2.084426 -0.0009016768      18259.1
        9037    0.9988138     2.083423 -0.000757277      18261.4
        9038    0.9990734     2.082387 -0.0008151157      18262.4
        9039    0.9994784     2.082128 -0.0007483233     18262.57
        9040    0.9997964     2.081165 -0.0005883268     18263.42
        9041     0.999971      2.08043 -0.000754254     18265.69
        9042    0.9999415     2.080034 -0.0007124565     18268.09
        9043    0.9998126      2.07911 -0.0008055664      18270.3
        9044    0.9995942     2.078316 -0.0008989905     18272.91
        9045    0.9994036     2.077208 -0.0009026874     18276.59
        9046    0.9992506     2.076438 -0.0008599244     18280.32
        9047    0.9991704       2.0755 -0.0008131776      18281.9
        9048    0.9991621     2.074876 -0.0008022133     18284.42
        9049    0.9990682     2.073955 -0.000827401     18285.15
        9050    0.9990617     2.073229 -0.0008857927     18285.44
        9051     0.998948      2.07219 -0.0008715959     18286.78
        9052    0.9991408     2.071333 -0.0009406888     18290.47
        9053    0.9994216     2.070469 -0.0009550353      18294.2
        9054    0.9994594     2.069467 -0.0009441975     18297.14
        9055    0.9995452      2.06837 -0.0009190492     18299.07
        9056    0.9994859     2.067556 -0.0008042859     18300.56
        9057    0.9992774     2.066793 -0.0007660537     18300.68
        9058    0.9992241     2.066249 -0.0008722974     18301.59
        9059    0.9992386     2.065306 -0.0008980866     18303.17
        9060    0.9995927     2.064067 -0.0009626707      18305.1
        9061    0.9998371       2.0632 -0.0009104907     18305.85
        9062     1.000108     2.062399 -0.0008603611     18306.28
        9063     1.000359     2.061664 -0.0007862058     18308.46
        9064     1.000693     2.060625 -0.0008842487     18309.76
        9065      1.00084     2.060055 -0.0008684954     18311.74
        9066     1.000864     2.058862 -0.0007631892     18313.52
        9067     1.001035      2.05819 -0.0007730899     18315.53
        9068     1.001308     2.057573 -0.0007734297     18318.08
        9069     1.001487     2.056963 -0.0007780799     18320.79
        9070      1.00145     2.055768 -0.0008075118     18323.36
        9071     1.001503     2.055078 -0.0008744731     18325.75
        9072     1.001666     2.054343 -0.0007627463     18328.16
        9073     1.001916     2.053465 -0.0007929198     18330.75
        9074      1.00231     2.052717 -0.0008373012     18333.06
        9075     1.002459     2.051906 -0.0008247575     18334.25
        9076     1.002614     2.050993 -0.0007620962     18336.54
        9077     1.002581     2.050166 -0.000771748     18338.09
        9078     1.002355     2.049669 -0.0008012125     18340.42
        9079     1.002203     2.048819 -0.000795985      18342.1
        9080     1.002063     2.047788 -0.0009224866     18343.15
        9081     1.001918     2.046982 -0.0008926917     18343.77
        9082     1.001724     2.045979 -0.0007842248     18343.33
        9083     1.001611     2.045248 -0.0007935254     18342.94
        9084     1.001496     2.044652 -0.0007541155      18339.3
        9085     1.001487     2.043808 -0.0008204824     18325.28
        9086     1.001146     2.042962 -0.000819024     18299.38
        9087     1.000723     2.041966 -0.000829855     18281.51
        9088     1.000242     2.041375 -0.0008269325      18274.4
        9089      1.00011     2.040489 -0.0007283335      18267.6
        9090     1.000351     2.039654 -0.0007938934     18242.66
        9091     1.000566     2.039053 -0.0008160172      18189.6
        9092     1.000814       2.0382 -0.0005813496     18147.92
        9093     1.001894     2.037225 -0.0006701204     18053.46
        9094    0.9995955     2.037329 -0.0008091658     18043.11
        9095    0.9994381     2.036372 -0.0007486673     18202.39
        9096     1.001377     2.034963 -0.000829797     18221.36
        9097     1.002209      2.03423 -0.0007969314     18091.47
        9098     1.000909      2.03401 -0.0007373409     18085.57
        9099     1.000659     2.033185 -0.0008132042     18192.89
        9100     1.001187     2.032014 -0.0008830703     18272.14
        9101       1.0011     2.030977 -0.0008735764     18290.13
        9102     1.000633     2.030478 -0.0008406047     18311.03
        9103     1.000612      2.02969 -0.0006877991     18330.45
        9104     1.000695     2.028651 -0.0007652893     18341.97
        9105     1.000427     2.028226 -0.0008191541     18349.83
        9106     1.000026     2.027416 -0.0007688089     18359.83
        9107    0.9998151     2.026414 -0.0008083031     18376.62
        9108    0.9996946     2.025576 -0.0008222704      18393.9
        9109    0.9995685     2.024993 -0.0006996265     18403.42
        9110    0.9997121     2.024127 -0.0007269317      18409.7
        9111    0.9998671     2.023615 -0.0007730979     18413.68
        9112     1.000031     2.022668 -0.0007446164     18416.55
        9113    0.9999329       2.0219 -0.0008255655     18418.55
        9114    0.9997378     2.021149 -0.0007750426     18422.04
        9115     0.999586     2.020313 -0.000780391      18425.4
        9116    0.9994571     2.019568 -0.0007925916     18429.68
        9117    0.9992583     2.018779 -0.0006975549     18433.86
        9118     0.999341     2.017979 -0.0008009264     18435.97
        9119    0.9994652     2.017523 -0.000804042        18438
        9120    0.9997273     2.016365 -0.0007907142     18438.71
        9121     1.000105     2.015563 -0.0007880804     18439.62
        9122     1.000545     2.014816 -0.0007593581     18441.49
        9123     1.000867      2.01437 -0.0006865441     18441.33
        9124     1.001202     2.013327 -0.0007363458      18443.2
        9125     1.001343     2.012816 -0.0007997117     18446.39
        9126     1.001415      2.01187 -0.0006332739     18449.45
        9127     1.001284     2.011172 -0.0007038899     18451.86
        9128     1.001158     2.010794 -0.0006421346     18454.76
        9129     1.001033     2.010001 -0.0005935989     18456.85
        9130     1.000958     2.009302 -0.0006201274      18459.1
        9131     1.000752     2.008797 -0.0006462617     18459.86
        9132      1.00053     2.008314 -0.0006208708     18460.76
        9133     1.000717     2.007416 -0.0006403538     18463.03
        9134     1.000654     2.006818 -0.0006770723     18464.61
        9135     1.000756     2.006236 -0.000602125     18467.18
        9136     1.001405     2.005605 -0.0006073933     18469.52
        9137     1.001886     2.005007 -0.0005317831     18469.33
        9138      1.00205     2.004389 -0.0005050824     18470.23
        9139      1.00188     2.004109 -0.0005085191     18470.95
        9140     1.001895     2.003585 -0.0004821288     18471.87
        9141     1.001463     2.002973 -0.0005481017     18474.24
        9142     1.001087      2.00246 -0.000547594     18477.36
        9143     1.000694     2.001916 -0.0004746897     18479.93
        9144      1.00057     2.001395 -0.0005165016     18482.49
        9145     1.000522     2.001074 -0.0005038668      18485.1
        9146     1.000583     2.000394 -0.0004832799     18487.17
        9147     1.000827     1.999901 -0.0005760627     18488.03
        9148     1.001239     1.999461 -0.000516129     18489.97
        9149     1.001554      1.99877 -0.0005515945     18490.92
        9150     1.001834      1.99833 -0.000533112     18492.09
        9151     1.002025     1.997694 -0.0004771012     18493.23
        9152     1.001837     1.997329 -0.0004941053     18493.82
        9153     1.001458     1.996862 -0.0005484197     18495.27
        9154     1.001004     1.996353 -0.000604949     18497.39
        9155      1.00078     1.995501 -0.000612617      18499.8
        9156     1.000459     1.994909 -0.0005647901     18500.34
        9157     1.000214     1.994411 -0.0005260941     18502.32
        9158    0.9998421     1.994094 -0.0005186108      18503.4
        9159    0.9999289     1.993396 -0.0005196647     18506.42
        9160     1.000299     1.992835 -0.0006144605     18509.76
        9161     1.000466     1.992333 -0.0006487988     18511.74
        9162     1.000547     1.991636 -0.000680083     18513.33
        9163     1.000703     1.990801 -0.0006693305     18516.15
        9164     1.000665     1.990114 -0.0006682595      18518.9
        9165     1.000826     1.989655 -0.0005610065     18521.47
        9166      1.00079     1.988963 -0.0005681814     18523.32
        9167     1.000792     1.988557 -0.0006557119     18523.83
        9168     1.001089     1.987842 -0.0006626706     18525.37
        9169      1.00166     1.987033 -0.0007715073     18528.95
        9170     1.002047     1.986313 -0.0007395765     18532.53
        9171     1.002323     1.985471 -0.0007354947     18534.79
        9172     1.002396     1.984883 -0.0006949253     18534.88
        9173     1.002373     1.984091 -0.0006401748      18535.1
        9174     1.002228     1.983533 -0.0006943922     18535.24
        9175     1.002404      1.98291 -0.0006626454     18536.65
        9176     1.002498     1.982106 -0.0007293179     18537.22
        9177     1.002438      1.98144 -0.0007405176        18538
        9178     1.002162     1.980616 -0.0006152059      18537.4
        9179     1.002109     1.979948 -0.000609317     18537.73
        9180     1.001975     1.979645 -0.0006033511     18539.31
        9181     1.001933     1.979003 -0.0006577724     18540.63
        9182     1.002023     1.978202 -0.0007941274     18541.09
        9183     1.001949     1.977317 -0.0007523342     18541.62
        9184      1.00186     1.976468 -0.0007340984     18542.76
        9185     1.001905     1.975993 -0.0006358616     18545.55
        9186     1.002049     1.975266 -0.0006320453     18546.18
        9187     1.002307     1.974774 -0.0006644547     18548.06
        9188     1.002441      1.97394 -0.0005809716     18550.47
        9189     1.002332     1.973336 -0.0006240221      18549.9
        9190     1.002106     1.972942 -0.0006329422     18550.58
        9191     1.001802     1.972278 -0.0005666641     18552.21
        9192     1.001711     1.971409 -0.0006512939     18554.26
        9193     1.001301     1.971069 -0.0005900572     18556.44
        9194     1.001237     1.970337 -0.0005572916     18558.05
        9195     1.001123     1.969917 -0.000675214     18558.75
        9196     1.001143     1.969179 -0.0006180246     18559.33
        9197     1.001226     1.968368 -0.000637727     18559.98
        9198     1.001213     1.967865 -0.0005871514     18561.08
        9199     1.001282     1.967367 -0.0005788825     18562.84
        9200     1.001342     1.966831 -0.0005927307     18564.81
        9201     1.001502     1.966053 -0.0006258966      18566.3
        9202     1.001605     1.965494 -0.0006784737     18566.91
        9203     1.001614     1.964863 -0.0005915727     18567.94
        9204     1.001702     1.964117 -0.0006699939     18570.57
        9205      1.00167     1.963686 -0.0007286638     18571.26
        9206     1.001571     1.962814 -0.0006773893      18571.8
        9207     1.001637     1.961948 -0.0007273728     18573.32
        9208     1.001752     1.961407 -0.0007473921     18574.96
        9209     1.001704     1.960777 -0.0006943281     18577.29
        9210     1.001523     1.959824 -0.0007293122     18580.32
        9211     1.001522     1.959171 -0.0007929831     18582.64
        9212     1.001319      1.95849 -0.0005865357      18584.3
        9213      1.00143     1.957605 -0.0007059019     18586.75
        9214     1.001731     1.957478 -0.0006711671     18587.12
        9215     1.001896     1.956347 -0.0006581338     18588.92
        9216     1.001853     1.955805 -0.0007936075     18590.22
        9217     1.002172     1.954972 -0.0006843734     18592.03
        9218     1.002477     1.954304 -0.000828735     18592.57
        9219     1.002431      1.95361 -0.0006718805     18593.75
        9220     1.002291      1.95249 -0.0007446665     18593.78
        9221     1.002167     1.952285 -0.0007463868     18595.15
        9222     1.002431     1.951325 -0.0006128977     18597.97
        9223     1.002836     1.950624 -0.0007174777     18599.75
        9224     1.002723     1.950039 -0.0007378408     18600.93
        9225     1.002457     1.949415 -0.0007548285     18602.03
        9226     1.002354     1.948374 -0.0008094758     18603.89
        9227     1.002331     1.947605 -0.0007948678     18606.81
        9228     1.001928     1.946801 -0.0007137837     18607.58
        9229     1.001581     1.946235  -0.00068516      18609.6
        9230     1.001229     1.945518 -0.000692236      18610.5
        9231     1.001094     1.944864 -0.0007467426     18610.93
        9232     1.000976     1.944032 -0.0007197547     18611.41
        9233     1.001018     1.943248 -0.0007366757     18611.03
        9234       1.0012     1.942639 -0.0007046557     18610.99
        9235     1.001195     1.941918 -0.0006838103     18611.95
        9236      1.00093     1.941213 -0.0006972275      18613.9
        9237     1.000664     1.940513 -0.0007475627     18615.01
        9238     1.000578      1.93985 -0.0007697425     18616.27
        9239     1.000595     1.938927 -0.000775719      18616.8
        9240     1.000635     1.938134 -0.0007460227     18618.19
        9241     1.000816      1.93741 -0.0006432145     18619.87
        9242     1.000785     1.936866 -0.000628182     18620.55
        9243     1.000935     1.936355 -0.0006575741     18621.67
        9244     1.000967     1.935622 -0.0007490095     18620.48
        9245     1.001244      1.93478 -0.0007207074      18619.2
        9246     1.001302      1.93387 -0.0007109305      18618.2
        9247     1.001524     1.933472 -0.0006788016     18614.83
        9248     1.001658     1.932778 -0.0006733146     18604.86
        9249     1.001968     1.932065 -0.0005854535     18566.37
        9250     1.002477     1.931177 -0.0006165654     18449.58
        9251     1.000736      1.93113 -0.0006685437     18381.63
        9252     1.000123     1.930312 -0.0006680602     18497.87
        9253     1.000988     1.929391 -0.000728811     18563.68
        9254     1.002035     1.928505 -0.0006740122     18493.06
        9255     1.001028     1.928215 -0.0006768732     18401.29
        9256     1.000769     1.927616 -0.0005790447      18494.5
        9257     1.000779     1.926683 -0.0007671683     18594.44
        9258     1.000518     1.926189 -0.0007454107     18639.91
        9259     1.000427     1.925146 -0.0006673236     18649.75
        9260     1.000159     1.924634 -0.0007010385     18652.84
        9261     1.000041     1.924014 -0.000663481     18655.32
        9262     1.000309     1.923384 -0.0006810996     18658.91
        9263     1.000433     1.922492 -0.0006814282     18660.65
        9264     1.000354      1.92191 -0.0006979556     18661.88
        9265     1.000092     1.921288 -0.0006315299        18663
        9266    0.9998111     1.920593 -0.0006687494     18662.39
        9267    0.9996146     1.919966 -0.0006772995     18660.85
        9268    0.9992956     1.919235 -0.0006559239     18662.04
        9269    0.9989842     1.918579 -0.0006822225     18664.54
        9270    0.9989141     1.917969 -0.0006201183      18664.8
        9271    0.9990273     1.917237 -0.0006337114     18665.97
        9272    0.9991852     1.916754 -0.0006108849     18668.15
        9273    0.9995646     1.916044 -0.0005904843     18671.42
        9274    0.9998961     1.915525 -0.0006703959      18672.7
        9275      1.00007     1.914875 -0.000635593     18672.32
        9276      1.00011     1.914073 -0.0006431693     18672.58
        9277     1.000112     1.913502 -0.0006556608     18673.73
        9278      1.00026     1.912953 -0.0006234921     18675.68
        9279     1.000471     1.912252 -0.0006099006     18677.26
        9280     1.000487     1.911579 -0.0006139709     18677.77
        9281     1.000582     1.911062 -0.0005839711     18679.46
        9282     1.000705     1.910497 -0.0006212194      18680.8
        9283     1.000912     1.909917 -0.0006477355     18680.85
        9284     1.000968     1.909094 -0.0006401957     18682.12
        9285     1.000588     1.908471 -0.0006930272     18682.99
        9286     1.000125     1.907936 -0.0006108515     18684.65
        9287    0.9997006     1.907144 -0.000596569     18686.42
        9288    0.9992551      1.90665 -0.0006363138     18687.49
        9289    0.9990867     1.906085 -0.0005527546     18688.69
        9290    0.9991971     1.905391 -0.0005774163     18689.86
        9291    0.9993693     1.904933 -0.0006219205     18690.15
        9292    0.9990495     1.904341 -0.0005492448     18690.37
        9293    0.9986505     1.903597 -0.0006275092     18690.95
        9294    0.9987339     1.903194 -0.0005849524     18692.49
        9295    0.9990257     1.902423 -0.0005067245     18694.28
        9296    0.9989049     1.902001 -0.0005403447     18695.14
        9297    0.9989668      1.90157 -0.0004943409     18695.65
        9298    0.9991368     1.901032 -0.0005518048     18697.59
        9299    0.9994612     1.900446 -0.0005856705     18699.46
        9300    0.9997293     1.899794 -0.0006027634     18702.09
        9301    0.9998576     1.899228 -0.0005731654     18703.12
        9302    0.9998321     1.898621 -0.0005775484     18702.94
        9303    0.9999859     1.898153 -0.0005537296     18703.46
        9304     1.000119     1.897483  -0.00054089     18703.68
        9305     1.000186     1.897013 -0.0005666452     18703.21
        9306     1.000154     1.896458 -0.0005823659     18703.49
        9307      1.00027     1.895887 -0.0005831396     18705.19
        9308     1.000544     1.895154 -0.0005868134     18705.47
        9309     1.000909      1.89468 -0.0005497633     18706.19
        9310     1.001143     1.894111 -0.000492692     18707.19
        9311     1.000983     1.893688 -0.0006076528     18707.36
        9312      1.00083     1.893183 -0.0005428196     18708.24
        9313     1.000917      1.89225 -0.0006021477     18709.11
        9314     1.000921     1.891939 -0.0007014644     18710.47
        9315     1.001014     1.891279 -0.0005428597     18711.85
        9316     1.000976     1.890377 -0.0005414563     18712.27
        9317     1.000892     1.890078 -0.0005909885     18714.97
        9318      1.00073     1.889774 -0.0005198977     18717.15
        9319     1.000663     1.888915 -0.0005949136      18719.4
        9320     1.000597     1.888298 -0.0006368729     18718.07
        9321     1.000563     1.887698 -0.0005297152     18716.59
        9322     1.000705     1.887226 -0.0005576602     18715.62
        9323     1.000879     1.886796 -0.0006130393     18716.61
        9324     1.000907     1.886067 -0.0006486759     18717.64
        9325      1.00097     1.885246 -0.0006321962      18718.9
        9326     1.001308     1.884631 -0.0005454605     18721.23
        9327     1.001477     1.884268 -0.0005475922     18722.62
        9328     1.001609     1.883885 -0.000561006     18723.51
        9329     1.001713     1.883056 -0.0006082313     18725.22
        9330     1.001673     1.882387 -0.0007118392     18726.46
        9331     1.002077     1.881835 -0.000624087     18728.19
        9332     1.002462     1.881038 -0.0005673598     18727.91
        9333     1.002652      1.88056 -0.0005463809     18726.69
        9334     1.002659     1.880118 -0.0005291736     18726.63
        9335     1.002687     1.879649 -0.0005973613     18729.35
        9336     1.002603     1.878921 -0.0005835133     18732.89
        9337     1.002134      1.87817 -0.000648737     18734.91
        9338     1.001986     1.877784 -0.0005895074     18735.85
        9339     1.001989     1.877054 -0.0005409566     18736.04
        9340      1.00214     1.876563 -0.0005828784     18734.61
        9341     1.002519     1.876006 -0.0006261413      18734.4
        9342      1.00277     1.875452 -0.0006215246     18733.66
        9343     1.002976      1.87455 -0.0006438488     18734.79
        9344     1.003064     1.874077 -0.0007035786     18736.04
        9345     1.003171     1.873431 -0.0006128827     18735.98
        9346     1.002934     1.872638 -0.000642498      18736.8
        9347     1.002604     1.872098 -0.0006117985     18738.58
        9348     1.002461     1.871507 -0.0005889275     18739.13
        9349     1.002368     1.870984 -0.0006075483     18738.28
        9350     1.002409     1.870282 -0.0006214405      18734.6
        9351     1.002361     1.869668 -0.0005782177     18732.02
        9352     1.002112     1.869021 -0.0006500179     18733.56
        9353     1.002084     1.868671 -0.0005938654     18736.57
        9354     1.002235     1.867682 -0.0005726628      18738.5
        9355     1.002183     1.867292 -0.0006236972     18740.67
        9356     1.001866     1.866731 -0.0005477238     18742.93
        9357     1.002147     1.866176 -0.0005776917     18747.36
        9358     1.002574     1.865491 -0.0006560022     18749.42
        9359     1.002742     1.864982 -0.0006726314     18748.86
        9360     1.003106     1.864107 -0.000584923     18747.47
        9361     1.003535     1.863485 -0.0006576562     18745.09
        9362     1.003581     1.863152 -0.0005770285     18742.07
        9363     1.003691     1.862351 -0.0005597101     18743.01
        9364     1.003554     1.861799 -0.0006605221     18745.46
        9365      1.00323     1.861247 -0.0006404466     18746.19
        9366     1.002872      1.86051 -0.0006446187     18746.52
        9367     1.002793     1.859789 -0.0006460133     18750.18
        9368     1.002528      1.85922 -0.0006373845     18754.83
        9369     1.002132     1.858663 -0.0005971622     18756.39
        9370     1.001979      1.85796 -0.0006018502     18757.48
        9371     1.001791     1.857401 -0.0006015728     18759.07
        9372       1.0012     1.856813 -0.0005882709      18760.4
        9373     1.000705     1.856256 -0.0005672114     18761.51
        9374     1.000355     1.855607 -0.0005824903     18759.75
        9375     1.000331     1.855132 -0.000617534     18759.12
        9376     1.000334     1.854483 -0.0005925769      18758.7
        9377     1.000371     1.853786 -0.0006172578     18759.84
        9378     1.000461     1.853237 -0.0005916679     18760.59
        9379     1.000805     1.852663 -0.0005785275     18762.87
        9380     1.001373     1.852116 -0.0005724163     18763.91
        9381     1.001715     1.851472 -0.0005854163     18764.46
        9382      1.00186     1.850947 -0.0006071346      18764.9
        9383     1.001946     1.850321  -0.00062589     18766.07
        9384     1.001885     1.849688 -0.0006199827     18767.14
        9385     1.001864     1.848968 -0.0005851241      18768.8
        9386     1.001821     1.848467 -0.0005535879     18769.55
        9387     1.001821     1.847981 -0.000563836     18770.12
        9388     1.001742     1.847473 -0.0005483766     18771.32
        9389      1.00161     1.846713 -0.0006227555      18771.1
        9390     1.001554     1.846273 -0.0006048715     18770.39
        9391     1.001616      1.84549 -0.0006120772      18769.9
        9392     1.001388     1.845054 -0.000668906     18768.29
        9393     1.001044     1.844265 -0.0006083254     18767.46
        9394      1.00084     1.843598 -0.000650071     18767.15
        9395     1.000585     1.843056 -0.0006521384     18768.46
        9396     1.000205     1.842453 -0.0005973571     18769.34
        9397    0.9999998     1.841656 -0.0006571875     18769.82
        9398    0.9998705     1.841208 -0.0006852807     18771.07
        9399    0.9999356     1.840427 -0.0006037131      18773.6
        9400    0.9999943     1.839712 -0.0006322968      18772.7
        9401     1.000098     1.839241 -0.0005789087     18772.79
        9402     1.000083     1.838679 -0.000569598      18772.4
        9403     1.000009     1.838112 -0.0005822947     18774.29
        9404    0.9998231     1.837434 -0.0005731774     18774.98
        9405     1.000035     1.836912 -0.0005397536     18776.33
        9406     1.000366     1.836387 -0.0006002961     18778.41
        9407     1.000599     1.835953 -0.0006078762     18778.83
        9408     1.000892     1.835033 -0.0006424932     18777.91
        9409     1.001129     1.834481 -0.0006898918     18777.36
        9410     1.001213     1.833817 -0.0006286156     18778.51
        9411     1.001216     1.833193 -0.0006465509     18778.65
        9412     1.001124     1.832518 -0.0006537045     18779.41
        9413     1.001063     1.831895  -0.00058696     18781.42
        9414     1.000869     1.831202 -0.000565139     18782.49
        9415     1.000604     1.830845 -0.0005763511     18782.63
        9416     1.000134     1.830258 -0.0005496564     18782.65
        9417    0.9997436     1.829589 -0.0005982399     18781.85
        9418    0.9995328     1.829003 -0.0006362194     18779.57
        9419    0.9994596     1.828452 -0.0006666229     18778.91
        9420    0.9995454     1.827713 -0.0006317992     18779.16
        9421     0.999802     1.826923 -0.0006653761      18778.9
        9422    0.9999235     1.826476 -0.0006816832     18778.22
        9423    0.9999125     1.825791 -0.0005994873     18777.01
        9424    0.9994613     1.824986 -0.0006399427     18776.54
        9425    0.9989035     1.824525 -0.0006292615      18777.2
        9426    0.9982849     1.823916 -0.0005035373     18777.06
        9427    0.9978429     1.823274 -0.0005805139     18778.01
        9428     0.997365     1.822972 -0.0006122207     18777.35
        9429    0.9973141     1.822203 -0.0005364798     18776.38
        9430    0.9970508     1.821467 -0.0006848836     18776.28
        9431    0.9967124     1.821128 -0.0006166354     18776.31
        9432    0.9967934     1.820232 -0.000636706     18777.46
        9433    0.9968505     1.819736 -0.0006899326     18778.19
        9434    0.9970469      1.81892 -0.0005799246     18778.35
        9435    0.9973318     1.818368 -0.0005911717     18778.71
        9436    0.9972694     1.817913 -0.0005747602     18777.86
        9437    0.9973733     1.817371 -0.0005420163     18778.03
        9438    0.9975972     1.816621 -0.0006159132     18777.84
        9439    0.9978753       1.8162 -0.0006372045     18777.74
        9440    0.9980296     1.815449 -0.0006080159     18777.81
        9441    0.9982661     1.814823 -0.0006752152     18778.46
        9442    0.9986812     1.814189 -0.0006294007     18778.76
        9443    0.9988731     1.813499 -0.0005569031     18776.64
        9444    0.9988534     1.812931 -0.0005881008     18775.92
        9445    0.9988582     1.812595 -0.0005945846     18776.31
        9446    0.9989181     1.811837 -0.000578039     18776.43
        9447    0.9986813     1.811121 -0.0006249707     18776.85
        9448    0.9983146     1.810619 -0.0006089988     18776.98
        9449    0.9981935     1.810095 -0.0005586159     18777.19
        9450    0.9984375     1.809401 -0.0006202702     18776.44
        9451    0.9986911     1.808887 -0.0006496796     18776.02
        9452    0.9987345     1.808138 -0.0005683012     18775.55
        9453    0.9988367     1.807496 -0.0005961542     18775.53
        9454     0.998849     1.807128 -0.0005950563     18774.72
        9455    0.9988058     1.806502 -0.0004923054     18774.85
        9456    0.9989545     1.805758 -0.0005929043     18774.89
        9457    0.9992305     1.805527 -0.0005949506     18774.27
        9458    0.9992686     1.804756 -0.0005527524     18771.53
        9459    0.9994383     1.804122 -0.0006503104     18771.19
        9460    0.9994993     1.803547 -0.0005673124     18771.81
        9461    0.9995585     1.802926 -0.0005825637     18773.89
        9462    0.9996894     1.802487 -0.0005689455     18775.86
        9463    0.9996112     1.801792 -0.0005407902     18776.57
        9464    0.9995431     1.801271 -0.0005691314     18776.61
        9465    0.9995814     1.800763 -0.0005423914      18777.1
        9466    0.9997423      1.80021 -0.000589218     18778.44
        9467    0.9998359     1.799622 -0.0005645695     18778.58
        9468    0.9995504     1.798914 -0.000552077     18778.05
        9469    0.9992611     1.798504 -0.0005931945     18778.01
        9470    0.9990166     1.798002 -0.0005594817     18777.43
        9471    0.9990979      1.79725 -0.0005537669     18777.17
        9472    0.9989493     1.796676 -0.0005523087     18775.96
        9473     0.998401     1.796289  -0.00054094     18774.58
        9474    0.9979749     1.795793 -0.0004964693     18773.54
        9475    0.9978173     1.795086 -0.0005702197     18773.24
        9476      0.99761      1.79469 -0.000582081     18770.75
        9477    0.9976362     1.794009 -0.0005281046     18771.41
        9478    0.9978078     1.793464 -0.0005644257     18771.09
        9479    0.9979843     1.792973 -0.000530492     18771.04
        9480    0.9981029     1.792433 -0.0005567414     18770.82
        9481    0.9978474     1.791887 -0.0005386434     18771.34
        9482    0.9974634     1.791238 -0.0005452639     18768.57
        9483    0.9974625     1.790819  -0.00056243     18765.04
        9484     0.997629     1.790252 -0.0005370318     18756.35
        9485    0.9974113     1.789637 -0.0005479744      18736.9
        9486    0.9970657     1.789089 -0.0005410472     18728.25
        9487     0.996902     1.788627 -0.0005700942     18735.12
        9488    0.9969651     1.788088 -0.0005151978     18744.48
        9489    0.9970589     1.787356 -0.0005496269     18752.98
        9490    0.9971235     1.787029 -0.0005688584     18755.29
        9491    0.9970018     1.786428 -0.0005338005     18744.74
        9492    0.9968231     1.785812 -0.0006101608     18726.83
        9493    0.9968456     1.785221 -0.0005244391      18725.6
        9494    0.9967688     1.784588 -0.0005772203     18732.39
        9495    0.9966672     1.784331 -0.0006012453     18744.18
        9496    0.9965663     1.783503 -0.0005731865        18753
        9497    0.9965044     1.782816 -0.0006174522     18754.47
        9498    0.9960808     1.782295 -0.0005955429     18753.77
        9499    0.9955784     1.781861 -0.0005993548     18752.39
        9500    0.9955784     1.781861 -0.0005993548     18752.39
