# This file has been produced by extranormal (v 1.0.1 - February 23, 2017)
# O. Roudenko - Synchrotron SOLEIL. Covered by GPL licence.
#Data from HDF File: /nfs/ruche-rock/rock-soleil/com-rock/2022/Projets/20220725_Gilles/op5_cell4_alone/op5_cell4_pos1_close/op5_cell4_pos1_close_0008/op5_cell4_pos1_close_0008_14058.nxs to op5_cell4_pos1_close_0008_14081.nxs
#Time at start=2022-07-28 11:42:25.965
#Time from start (seconds)=64.8192318472
#Sample temperature (C)=nan
# Normalization -------------
# pivot spectrum: LNO_pristine_av1100_00001.txt
# E0=8332.88   Eshift=-0.199999905848
# E0_pivot = 8349.6
# pre-edge params: from E0_pivot-240.0 to E0_pivot-50.0
# pre-edge range: [8109.6, 8299.6]
# post-edge params: from E0_pivot+70.0 to E0_pivot+1155.0
# post-edge range: [8419.6, 9500.0]
# I jump at E0_pivot = 0.797609414025
# shifted energy	normalized	reference	ref.derivative	I0
        8060  0.001610723     1.042619 -0.000460988     14939.61
        8065 0.0003648164     1.040311 -0.0004750736     14958.54
        8070 0.0003244035     1.037866 -0.0004546173     14984.53
        8075 -0.0007586882     1.035706 -0.0004490501     15007.71
        8080 8.149885e-05     1.033527 -0.000452519     15028.63
        8085  0.001022353      1.03133 -0.0004569889     15048.22
        8090   0.00176404     1.028815 -0.0004616342     15070.31
        8095  0.001032516     1.026566 -0.0004583797     15094.76
        8100 0.0006108983     1.024294 -0.0004342035     15116.24
        8105 0.0003795308     1.022163 -0.0004384827     15139.26
        8110 9.629084e-05     1.020131 -0.0004308555     15158.81
        8115 -0.0004174309     1.017797 -0.0004233258     15178.16
        8120 0.0001950126     1.015677 -0.0004288983     15197.96
        8125 -0.0005425135     1.013696 -0.0004201596        15220
        8130 0.0001381248     1.011553 -0.0004063692     15241.73
        8135  0.001814513     1.009393 -0.0004193699     15262.59
        8140  0.000954297      1.00755 -0.000416743     15281.76
        8145 -0.0003749738     1.005309 -0.0004161917     15304.58
        8150 -0.001650236     1.003219 -0.0004212958     15321.75
        8155 -0.0009666095      1.00107 -0.0004195005     15344.86
        8160 0.0003004431    0.9991238 -0.0004187052     15363.67
        8165  0.001739398    0.9969187 -0.0004218557        15392
        8170  0.002872089    0.9948444 -0.0004297217      15409.5
        8175 0.0009681581    0.9926324 -0.0004235664     15432.91
        8180 0.0007920582    0.9905294 -0.0004203526     15452.43
        8185 -0.0004036901    0.9884473 -0.0004148801     15471.47
        8190  -0.00108715    0.9864374 -0.0004129251     15495.03
        8195 -0.0007132338    0.9843348 -0.0004150627     15516.54
        8200 -0.0006120952    0.9822709 -0.0004051178     15532.75
        8205 -0.000193328    0.9801461 -0.0004090784      15557.2
        8210 -0.001319038     0.978335 -0.0004154176     15573.44
        8215 -0.001552046    0.9761533 -0.0004124603     15594.64
        8220 -0.0007539321    0.9739625 -0.0004215309     15617.73
        8225 -0.001011575    0.9718969 -0.0004143542     15638.52
        8230 -0.0006913142    0.9699044 -0.0003995579      15660.2
        8235 -0.001122141    0.9678662 -0.0003957569     15676.62
        8240 -0.0006199397    0.9659714 -0.0003831381     15699.34
        8245  0.001332397    0.9639817 -0.0003749856     15721.23
        8250 0.0002292913    0.9622416 -0.0003750117     15739.32
        8255 -0.0006783872    0.9603665 -0.0003525243     15756.68
        8260 -0.001151557    0.9584711 -0.0003591333     15777.86
        8265 0.0001900953    0.9569313 -0.0003529392      15798.3
        8270  0.001645603     0.955059 -0.0003352382     15819.32
        8275 -3.56325e-05    0.9533077 -0.0003440885     15835.87
        8280 0.0002149151    0.9517664 -0.0003246299     15855.24
        8285 0.0004841028    0.9500495 -0.0003058532     15866.82
        8290 0.0006245173    0.9485664 -0.0002939022     15880.13
        8295  0.001468207    0.9471906 -0.0002728968     15890.59
        8300  0.004153592    0.9459493 -0.0002227768     15820.81
      8300.2  0.004065074    0.9459745 0.0001606873     15810.13
      8300.4  0.004025402    0.9459952 1.836257e-05     15801.34
      8300.6  0.003883036     0.946069 -0.0001433499     15792.95
      8300.8  0.003798731     0.945964 -0.0001848625      15786.8
        8301  0.003896319    0.9458598 -0.0003481249     15782.96
      8301.2  0.003871128    0.9458473   -0.0002857     15779.58
      8301.4  0.003949146    0.9457906 -0.0001421876     15778.11
      8301.6  0.003899971    0.9457354 -0.0002486124     15776.53
      8301.8  0.003892495    0.9457461 -0.0003924249     15776.03
        8302   0.00390602    0.9456484 -0.0005072249     15775.59
      8302.2  0.004026953    0.9454766 -0.0006233874     15774.95
      8302.4  0.004099767    0.9453297 -0.0005844125     15773.74
      8302.6  0.004169497    0.9452474 -0.0006015375     15772.15
      8302.8  0.004203383    0.9451809 -0.0004658376     15769.38
        8303  0.004406336    0.9449954 -0.0003168376     15766.68
      8303.2  0.004485871     0.944957 -0.000234425     15762.25
      8303.4  0.004586957    0.9449939 3.658737e-05     15756.63
      8303.6  0.004834217    0.9449933 0.0001669999     15749.47
      8303.8  0.004853911    0.9450246    0.0002409      15739.3
        8304  0.004936442    0.9450906 6.538758e-05     15727.06
      8304.2  0.005070338    0.9451866 -0.0001471249     15710.94
      8304.4  0.005329271    0.9450456 -0.0003248999     15689.56
      8304.6  0.005832773     0.944907 -0.0005953499     15662.06
      8304.8  0.006384907    0.9448307 -0.0005904125     15625.83
        8305  0.007059519    0.9447103 -0.0007073749     15578.86
      8305.2  0.007753465    0.9445733  -0.00074545     15520.28
      8305.4  0.008353906    0.9443411 -0.0004923626     15450.27
      8305.6  0.008883423    0.9442343 -0.0001581752     15371.74
      8305.8   0.00897379    0.9443164 0.0003092248     15294.55
        8306  0.008796858    0.9444467 0.0006298623     15223.12
      8306.2  0.008324681    0.9445884 0.0006488125     15163.82
      8306.4  0.007702155    0.9447382   0.00054815     15123.54
      8306.6  0.006985247    0.9448355 0.0004288251      15102.5
      8306.8  0.006374933    0.9448853 0.0003705875     15103.11
        8307  0.005782948    0.9449315  0.000382425     15123.37
      8307.2  0.005329966    0.9450347  0.000386275     15157.21
      8307.4  0.004974877    0.9451414 0.0004908375     15200.61
      8307.6  0.004651633    0.9451943  0.000568925     15250.25
      8307.8  0.004438367    0.9453242 0.0005606875     15306.87
        8308  0.004178751    0.9454898  0.000631675     15365.68
      8308.2  0.003933966      0.94559 0.0005356625     15426.58
      8308.4   0.00369708    0.9456996 0.0003392126     15489.11
      8308.6  0.003620435    0.9457527 0.0001286001     15554.64
      8308.8  0.003630737    0.9457612 -0.0001526749     15619.15
        8309  0.003970612    0.9456929 -0.0004969748     15679.03
      8309.2  0.004273539    0.9455775 -0.0007300874     15728.82
      8309.4  0.004809024    0.9453551 -0.0008569749     15768.21
      8309.6   0.00549161    0.9451771 -0.0008540625     15794.55
      8309.8  0.006081933    0.9450073 -0.0005416251     15806.04
        8310  0.006577072    0.9448942 -0.0005051125     15807.37
      8310.2  0.006860491    0.9449218 -0.0001665877     15801.79
      8310.4  0.006966931     0.944773 1.699991e-05     15794.08
      8310.6  0.006939483     0.944874 -6.848746e-05     15787.99
      8310.8  0.006811987    0.9449078 2.737466e-06     15784.69
        8311  0.006509968     0.944867 -0.0003239623     15785.42
      8311.2  0.006537736    0.9447752 -0.0005825749     15793.03
      8311.4  0.006692244    0.9446149 -0.0004176376     15800.76
      8311.6  0.007024057    0.9444418 -0.0003032001     15804.06
      8311.8  0.007274615    0.9445329 -5.186262e-05     15797.08
        8312  0.007189382    0.9445327 0.0004365248     15783.43
      8312.2  0.007119182    0.9445734 0.0004906625     15768.56
      8312.4   0.00711044     0.944791    0.0005653     15755.26
      8312.6  0.006854698    0.9449254 0.0002885751     15741.87
      8312.8  0.006649569    0.9449849 -1.884986e-05     15732.61
        8313  0.006723023    0.9448042 -0.0003282624     15726.67
      8313.2  0.007070558    0.9447759 -0.0006836498     15716.84
      8313.4  0.007786406    0.9446628 -0.0007605625     15694.81
      8313.6  0.008499408     0.944438 -0.0007873125     15657.72
      8313.8  0.009125815    0.9441958 -0.0006739876     15600.35
        8314   0.01002252    0.9441461 -0.0002231502     15528.33
      8314.2      0.01052    0.9441236 0.0002099748     15445.64
      8314.4   0.01065355    0.9442594 0.0006420373     15360.72
      8314.6   0.01061667    0.9443637    0.0011423     15283.85
      8314.8   0.01018678    0.9446597   0.00138585      15222.2
        8315  0.009456572    0.9450375    0.0016208      15178.9
      8315.2  0.008656904    0.9453681  0.001678925     15161.37
      8315.4  0.007936435    0.9456604  0.001414138     15167.45
      8315.6  0.007384997    0.9460028  0.001160538     15190.21
      8315.8  0.007089134    0.9461688   0.00100525     15226.79
        8316  0.006657729    0.9462966 0.0005646377     15267.28
      8316.2  0.006488383    0.9464646 0.0004692625     15310.76
      8316.4  0.006512188    0.9464546   0.00038395     15354.81
      8316.6  0.006378222    0.9465442  0.000387975     15397.57
      8316.8  0.006226077    0.9466037 0.0007504873     15441.09
        8317  0.006133522     0.946775 0.0007105625     15485.56
      8317.2   0.00599938    0.9470549 0.0005218251     15530.55
      8317.4  0.005968911    0.9471126 0.0002304626     15574.99
      8317.6  0.006020211    0.9470212 -0.0001169123     15619.28
      8317.8  0.006139765    0.9469593 -0.0002496999      15662.7
        8318  0.006369486    0.9469614 -3.13626e-05     15703.71
      8318.2  0.006697011    0.9469129 0.0001632749     15739.06
      8318.4   0.00701388    0.9469961   0.00022785     15769.42
      8318.6   0.00734143      0.94709    0.0003064     15795.01
      8318.8  0.007615885    0.9471437 0.0003886375     15816.35
        8319  0.007948839     0.947158   0.00040525     15834.65
      8319.2   0.00811003     0.947307 0.0005355624     15849.76
      8319.4   0.00844934    0.9474142  0.000619475     15862.46
      8319.6  0.008631707    0.9475721    0.0007242     15872.94
      8319.8  0.008924767    0.9476536 0.0007159625     15882.93
        8320  0.009144583    0.9478864  0.000673575      15892.1
      8320.2  0.009371308    0.9479869 0.0008713124     15899.81
      8320.4  0.009568368     0.948111    0.0008753     15906.67
      8320.6  0.009685967    0.9483506 0.0009516625     15912.84
      8320.8  0.009835322    0.9485866  0.001040225     15918.48
        8321  0.009845913    0.9487483  0.001031575     15923.22
      8321.2  0.009903281    0.9489432  0.001045087      15927.7
      8321.4   0.00989217    0.9491759   0.00112865     15932.93
      8321.6  0.009846443    0.9494227  0.001228737     15937.49
      8321.8  0.009806645    0.9496512  0.001258012     15942.82
        8322  0.009777493    0.9499262  0.001150313     15948.27
      8322.2  0.009824931    0.9501823  0.001127225      15953.8
      8322.4  0.009870288    0.9503429  0.001255087     15959.31
      8322.6  0.009862637     0.950553  0.001483462     15965.05
      8322.8  0.009843916    0.9509302   0.00180595     15971.35
        8323  0.009763798    0.9513691  0.002181887     15978.43
      8323.2   0.00967864    0.9517877  0.002107938     15985.68
      8323.4  0.009700377    0.9522985  0.001874275     15993.95
      8323.6  0.009747841    0.9526166  0.001722238      16001.2
      8323.8  0.009850945    0.9528685  0.001422888      16008.6
        8324  0.009965999    0.9531655  0.001430825     16015.41
      8324.2   0.01019252    0.9534368  0.001699162     16022.15
      8324.4   0.01037208    0.9537612  0.001787187     16027.44
      8324.6   0.01053066    0.9542278  0.002227887     16032.05
      8324.8   0.01084406    0.9545952    0.0025086     16036.22
        8325   0.01092363    0.9552191   0.00247585     16038.88
      8325.2   0.01099368    0.9557681  0.002818987      16040.8
      8325.4   0.01110951    0.9562085  0.002809888     16042.88
      8325.6   0.01122057    0.9568504  0.003019212      16044.6
      8325.8    0.0113098     0.957467   0.00336405     16046.01
        8326   0.01135095    0.9581835   0.00355945      16046.7
      8326.2   0.01159633    0.9588997  0.003645862     16048.51
      8326.4   0.01173338     0.959698  0.003808275     16049.13
      8326.6    0.0119969    0.9603837   0.00411575     16050.44
      8326.8   0.01208263    0.9612301   0.00453875      16051.3
        8327   0.01223388    0.9621923   0.00518235     16052.53
      8327.2   0.01238472     0.963329  0.005565437     16053.86
      8327.4   0.01244409    0.9645296   0.00587765     16054.29
      8327.6    0.0126199    0.9656825  0.005989012     16055.62
      8327.8   0.01281855    0.9668945  0.006356037     16056.73
        8328   0.01311096    0.9681202  0.006758662     16058.27
      8328.2   0.01320594    0.9696144  0.007180775     16058.67
      8328.4   0.01343464    0.9710894  0.007963737     16059.88
      8328.6   0.01359723    0.9726391  0.008483987     16060.03
      8328.8   0.01390339    0.9744912  0.009323075     16061.16
        8329   0.01426448    0.9764016   0.01054582     16062.87
      8329.2   0.01450626    0.9785479     0.011412     16063.27
      8329.4   0.01481735    0.9810757    0.0127615     16065.03
      8329.6   0.01508156    0.9836208   0.01433179     16064.86
      8329.8   0.01535569    0.9866108   0.01601625     16065.54
        8330   0.01577254    0.9900133   0.01908242      16066.8
      8330.2   0.01613523    0.9938887   0.02238545      16067.6
      8330.4   0.01657066    0.9988867   0.02622362     16068.67
      8330.6    0.0171218     1.004519   0.03118592     16069.76
      8330.8   0.01774203     1.010992   0.03712732     16070.77
        8331   0.01829684     1.018837   0.04486786     16071.29
      8331.2   0.01906221     1.028589   0.05494343     16072.12
      8331.4   0.01987469     1.040413   0.06659648     16073.05
      8331.6   0.02084021     1.054947   0.07904439     16073.71
      8331.8   0.02185125     1.072115   0.09224677     16073.83
        8332   0.02316233     1.091824    0.1054914     16074.52
      8332.2   0.02466656     1.114211     0.118041     16074.51
      8332.4   0.02651058      1.13934     0.129437     16074.83
      8332.6   0.02853154     1.166547    0.1380169     16074.94
      8332.8   0.03086433     1.195374    0.1443573     16074.81
        8333    0.0335019     1.224624     0.148184     16074.87
      8333.2   0.03623266     1.254826    0.1486366     16074.73
      8333.4   0.03893444     1.285095    0.1469377     16073.87
      8333.6   0.04162707     1.314283    0.1432759     16073.75
      8333.8   0.04414089     1.342174    0.1386236     16073.61
        8334   0.04630371     1.369447    0.1335951     16072.87
      8334.2   0.04825892     1.395994    0.1277783     16072.84
      8334.4    0.0496858     1.421159    0.1207579     16072.87
      8334.6   0.05068255     1.444397    0.1117738     16072.84
      8334.8   0.05122509     1.466053    0.1026901     16073.27
        8335   0.05138235     1.485413   0.09436142     16073.19
      8335.2   0.05117209     1.503311   0.08605139     16073.14
      8335.4   0.05085271     1.519886   0.07788634     16073.49
      8335.6   0.05049769     1.534894   0.07021927     16073.31
      8335.8   0.05029629     1.547722   0.06256863     16074.05
        8336   0.05030929     1.559486    0.0562174     16074.39
      8336.2   0.05052162     1.569941   0.05160856     16074.98
      8336.4   0.05109447     1.579868   0.04749389     16076.43
      8336.6   0.05176654     1.589009   0.04479604     16077.88
      8336.8   0.05253476     1.597482   0.04224244     16078.33
        8337   0.05351379     1.605778    0.0408499     16079.54
      8337.2   0.05469209     1.613662   0.04090691     16080.63
      8337.4   0.05604914     1.621689   0.04191004     16081.87
      8337.6     0.057599     1.630207   0.04425125     16082.68
      8337.8   0.05942848     1.639306   0.04727181     16083.95
        8338   0.06130315     1.649063    0.0509183     16084.95
      8338.2   0.06339011     1.659506    0.0544147     16085.73
      8338.4   0.06577323     1.670942   0.05781696     16087.74
      8338.6   0.06842607     1.682838   0.06058372     16088.69
      8338.8   0.07129397     1.695316    0.0629037     16089.67
        8339   0.07424947     1.707973    0.0645647     16090.12
      8339.2     0.077676     1.721265     0.065193     16091.66
      8339.4   0.08136974      1.73449   0.06475883      16091.8
      8339.6    0.0856238     1.747471   0.06267609      16092.6
      8339.8   0.09030098      1.75978   0.06069019     16093.22
        8340   0.09556248     1.771406   0.05905834     16094.35
      8340.2    0.1013581     1.783042    0.0581974     16095.02
      8340.4     0.108182     1.794718   0.05761495     16095.57
      8340.6    0.1161988     1.806338   0.05674999     16096.55
      8340.8    0.1249808     1.817498   0.05607794     16096.76
        8341    0.1344522     1.828442   0.05635511     16096.31
      8341.2    0.1456049      1.83958   0.05835561     16097.11
      8341.4    0.1583094     1.851422   0.06177961     16097.28
      8341.6    0.1728453     1.864182    0.0653966      16097.9
      8341.8    0.1887737     1.877865   0.06882814     16097.72
        8342    0.2055837     1.891897   0.07243339     16098.68
      8342.2    0.2230927     1.906485   0.07707044      16098.6
      8342.4    0.2416899     1.922129   0.08270383     16099.68
      8342.6    0.2616071     1.939522   0.08908396     16100.83
      8342.8    0.2816836      1.95806   0.09497665     16102.05
        8343    0.3017717     1.977752   0.09971195     16102.06
      8343.2    0.3213607      1.99811    0.1041899     16103.44
      8343.4    0.3406591     2.019291    0.1079635     16104.31
      8343.6    0.3596469     2.041412    0.1116339     16104.96
      8343.8    0.3781317     2.064122     0.115066     16105.14
        8344    0.3962394     2.087417     0.117998     16105.59
      8344.2    0.4142163     2.111344    0.1209087     16105.85
      8344.4    0.4322336     2.135811    0.1233508     16106.79
      8344.6     0.450323     2.160849    0.1256931     16106.81
      8344.8    0.4688643     2.186098    0.1272845      16107.6
        8345    0.4876897     2.211899    0.1286023     16108.38
      8345.2    0.5068289     2.237638     0.130371     16108.62
      8345.4    0.5267867     2.263731    0.1324079     16109.03
      8345.6    0.5475001     2.290395    0.1334238     16109.13
      8345.8    0.5695821     2.317825    0.1335205     16110.59
        8346    0.5914151     2.344377    0.1324237     16111.41
      8346.2    0.6135524     2.370548    0.1311337     16112.39
      8346.4    0.6360459     2.396333     0.131067     16114.13
      8346.6    0.6601153     2.422732    0.1303405      16114.6
      8346.8    0.6849484     2.449231     0.126857     16115.87
        8347     0.710279      2.47482    0.1214554     16117.69
      8347.2    0.7345431     2.497819    0.1150364     16117.53
      8347.4    0.7596171     2.519896    0.1095271     16118.12
      8347.6    0.7853422      2.54126    0.1033802     16118.59
      8347.8    0.8125876     2.562442   0.09637314     16118.88
        8348    0.8405831     2.580523   0.08775503     16119.61
      8348.2    0.8691643     2.596995   0.07622988      16119.9
      8348.4    0.8979467     2.611464   0.06698072     16119.75
      8348.6    0.9274365     2.623425   0.05768589     16119.72
      8348.8    0.9585505     2.634108     0.048806     16119.62
        8349    0.9910927     2.643143   0.04109019     16120.06
      8349.2     1.024572     2.650509    0.0337704      16119.7
      8349.4     1.058632     2.656298   0.02771019     16119.83
      8349.6     1.093629     2.661124   0.02138272     16120.26
      8349.8     1.129513     2.665312    0.0154569     16119.84
        8350     1.165694     2.667615   0.01021105     16119.53
      8350.2     1.202337     2.668663   0.00461739     16119.13
      8350.4      1.23899     2.669293  0.001419477     16118.95
      8350.6     1.274817     2.669005 -0.0005714741     16119.55
      8350.8     1.310211      2.66875  -0.00499006     16119.64
        8351     1.345095     2.668206 -0.006787024     16120.21
      8351.2     1.378233     2.665301 -0.009322661     16120.27
      8351.4     1.408817     2.663576  -0.01321295     16120.57
      8351.6     1.437575     2.661292  -0.01318371     16120.63
      8351.8     1.464908     2.657636  -0.01553171     16120.89
        8352     1.489836     2.654754  -0.01591079     16121.39
      8352.2     1.511368      2.65115  -0.01500631     16121.46
      8352.4     1.529949     2.648564  -0.01509542     16121.57
      8352.6     1.545293     2.645631  -0.01364456      16121.9
      8352.8     1.557876     2.642678  -0.01157631     16122.17
        8353     1.567224     2.640235 -0.009340651     16121.85
      8353.2     1.572939     2.639303 -0.006715489     16121.76
      8353.4     1.574447     2.638158 -0.004273764     16122.31
      8353.6     1.572368     2.637305 -0.002351251     16122.67
      8353.8     1.566683     2.636816  0.001907848     16123.28
        8354     1.556235     2.637422   0.00701321     16123.54
      8354.2     1.541923     2.639684   0.01238756     16124.52
      8354.4     1.524478     2.642916    0.0180532     16125.28
      8354.6      1.50392     2.646726   0.02206225     16126.03
      8354.8     1.480779     2.651864   0.02591656     16127.23
        8355     1.455705     2.657334   0.02977741     16128.18
      8355.2     1.428791     2.663649   0.03304199     16129.11
      8355.4     1.400995     2.670548   0.03631527     16129.07
      8355.6     1.373092     2.678298   0.03772725     16130.22
      8355.8     1.345366     2.686386   0.03967807     16130.82
        8356     1.317156     2.693831   0.03919529      16131.6
      8356.2     1.290393      2.70229   0.03918496     16132.83
      8356.4     1.265056     2.709654   0.03820845     16133.63
      8356.6     1.240934     2.717734    0.0363428     16134.09
      8356.8     1.218016     2.724398   0.03503216     16134.65
        8357     1.196304     2.731364   0.03016686     16135.39
      8357.2     1.176284      2.73768   0.02739358     16136.13
      8357.4      1.15889     2.741868   0.02236321     16137.34
      8357.6     1.142794     2.746312   0.01688955     16138.24
      8357.8     1.128224     2.749255   0.01280045     16139.78
        8358     1.115036     2.751191  0.007229328     16140.29
      8358.2     1.103238     2.752108  0.002396302     16141.15
      8358.4     1.092565     2.752096 -0.002344023     16142.36
      8358.6     1.083444     2.751172 -0.006018323     16142.71
      8358.8     1.075277     2.749316 -0.009788961     16143.83
        8359     1.067901     2.747294  -0.01380839     16144.85
      8359.2     1.060904     2.744265  -0.01605371      16144.9
      8359.4     1.054892     2.740125  -0.01930491     16145.96
      8359.6     1.049423     2.736473   -0.0204315     16146.64
      8359.8     1.044393      2.73185  -0.02083137        16147
        8360     1.039843      2.72792  -0.02169429     16148.01
      8360.2     1.035345      2.72346  -0.02188617     16148.95
      8360.4     1.030753     2.719118  -0.02166504     16148.96
      8360.6     1.026627     2.714341   -0.0211878     16149.78
      8360.8       1.0225     2.710588  -0.02105439     16150.69
        8361     1.018539      2.70651  -0.01938254     16151.49
      8361.2     1.014532     2.702274  -0.01910615      16151.8
      8361.4     1.010754     2.698835   -0.0179831     16152.79
      8361.6     1.006931     2.695303  -0.01668886     16153.72
      8361.8     1.003048     2.692124  -0.01637305     16154.25
        8362    0.9994694     2.688923  -0.01614584     16155.54
      8362.2    0.9958703     2.685736  -0.01708305     16156.12
      8362.4    0.9923545     2.682386  -0.01721794     16156.82
      8362.6    0.9892994     2.678457  -0.01742016     16158.23
      8362.8    0.9862509     2.675149  -0.01839677     16159.47
        8363    0.9833419       2.6718  -0.01868294     16160.84
      8363.2    0.9803912     2.667669  -0.01990987     16161.63
      8363.4    0.9779447     2.663511  -0.02186365     16162.47
      8363.6    0.9758098     2.659221  -0.02151773      16163.3
      8363.8    0.9741588     2.654309  -0.02321006      16164.6
        8364    0.9728245     2.650454   -0.0242221      16165.2
      8364.2    0.9719447     2.644943  -0.02479196     16166.09
      8364.4    0.9714873     2.639843  -0.02547311     16167.61
      8364.6    0.9714195     2.634476  -0.02451141     16168.43
      8364.8    0.9719317     2.630076  -0.02317673      16169.7
        8365    0.9728369     2.625334  -0.02293106      16170.5
      8365.2    0.9742609     2.621302   -0.0229305      16171.4
      8365.4     0.976294     2.616131  -0.02114718     16172.14
      8365.6    0.9786981     2.611731  -0.02032274      16173.7
      8365.8    0.9813229     2.608416  -0.01838238     16174.33
        8366    0.9845441     2.605044  -0.01703344     16175.95
      8366.2    0.9879144     2.601425   -0.0150685     16176.65
      8366.4    0.9913527     2.598105  -0.01385603     16177.17
      8366.6    0.9950546     2.596361  -0.01233698     16178.58
      8366.8    0.9986753     2.593959  -0.01012765     16179.97
        8367     1.002237     2.591555 -0.009916013     16180.79
      8367.2     1.005781     2.590003 -0.008842476     16181.93
      8367.4     1.009278     2.588428 -0.007599426     16182.85
      8367.6     1.012391     2.586885 -0.006819988     16183.78
      8367.8     1.015311     2.585476 -0.006323225     16184.67
        8368     1.017804     2.584547 -0.005375025     16185.65
      8368.2     1.019987      2.58337  -0.00618635     16187.09
      8368.4     1.021838     2.582585 -0.005580575     16188.38
      8368.6     1.023142     2.580527 -0.005025188     16189.37
      8368.8     1.023997     2.580082 -0.003948151     16190.23
        8369     1.024511      2.57935 -0.002571263     16191.77
      8369.2     1.024379     2.579426 -0.002637062     16192.67
      8369.4     1.023848      2.57847 -0.0007976009     16193.92
      8369.6     1.022792     2.577973 -0.002325699     16194.87
      8369.8     1.021353     2.578711 -0.0005638633     16195.63
        8370     1.019665     2.577566  0.001143237      16196.5
      8370.2      1.01731     2.578019  0.000136713     16196.48
      8370.4     1.014676     2.578887  0.002903386     16197.18
      8370.6     1.011572     2.578821  0.004151662     16198.44
      8370.8     1.008261     2.579888  0.004189737     16199.27
        8371     1.004656      2.58134  0.006846724        16200
      8371.2     1.001202     2.582239  0.007426012     16201.06
      8371.4    0.9971544     2.584298   0.00791485     16201.55
      8371.6    0.9930647     2.585829    0.0100795     16202.08
      8371.8    0.9888488     2.587672   0.01130766     16203.59
        8372    0.9844178     2.590302   0.01247814     16204.13
      8372.2    0.9800941     2.593344   0.01398142     16205.38
      8372.4    0.9756405     2.595812   0.01452949      16206.5
      8372.6    0.9711514     2.598857   0.01533649      16207.1
      8372.8    0.9665157     2.601926    0.0167791     16207.55
        8373    0.9618975     2.605613   0.01683157      16208.3
      8373.2    0.9572206     2.609235   0.01818846     16208.59
      8373.4     0.952482     2.612322   0.01889297     16209.31
      8373.6    0.9476507     2.616477   0.01980471     16209.74
      8373.8    0.9427569     2.620728   0.02119339     16210.51
        8374    0.9379329     2.625079   0.02206321     16210.92
      8374.2    0.9331111     2.629277    0.0227078     16212.12
      8374.4    0.9283332     2.634127    0.0232134     16212.44
      8374.6    0.9233393     2.638894   0.02437191     16212.89
      8374.8    0.9181396      2.64365   0.02456526     16213.05
        8375    0.9129924     2.648774   0.02540409     16213.43
      8375.2    0.9082062      2.65378   0.02591665     16214.51
      8375.4    0.9032563     2.659217   0.02602179     16214.77
      8375.6    0.8985049     2.664383   0.02749375     16215.36
      8375.8     0.893718     2.669592   0.02785502     16216.31
        8376    0.8888795     2.675775   0.02820576     16216.77
      8376.2    0.8843533     2.681501   0.02959655     16217.77
      8376.4     0.879963     2.686947   0.02911431     16218.64
      8376.6     0.875695     2.693269   0.02938359     16219.37
      8376.8    0.8714145     2.699066   0.02991747     16220.28
        8377    0.8673238     2.705008   0.02942041     16221.02
      8377.2    0.8636166     2.710881   0.02954419      16221.7
      8377.4    0.8601284     2.716805   0.02964141     16223.29
      8377.6    0.8567255     2.722701    0.0304204     16223.86
      8377.8    0.8534541     2.728721   0.03038305     16224.43
        8378    0.8505085     2.735218   0.03068992     16225.15
      8378.2    0.8477378     2.741112   0.02975768     16226.09
      8378.4    0.8453023     2.747253   0.02901636     16227.14
      8378.6    0.8427298     2.752528   0.02927026     16227.51
      8378.8    0.8403524     2.758431   0.02812501     16228.09
        8379    0.8383293     2.764528   0.02904054     16229.44
      8379.2    0.8362373     2.769753   0.02845736     16229.92
      8379.4    0.8344481      2.77576   0.02692993     16230.68
      8379.6    0.8327841     2.781197    0.0265257     16231.18
      8379.8    0.8312181     2.786072   0.02518058     16232.08
        8380    0.8298984     2.790974   0.02386841     16233.88
      8380.2    0.8285713     2.795904    0.0229887     16234.43
      8380.4    0.8275609     2.800291   0.02161136     16236.05
      8380.6    0.8267806     2.804463   0.02016246     16236.39
      8380.8    0.8260992     2.808263    0.0182267      16237.4
        8381    0.8254176     2.812034   0.01628388     16237.87
      8381.2    0.8249878     2.814873   0.01421904     16238.43
      8381.4    0.8248078      2.81749   0.01190213     16239.45
      8381.6    0.8247019     2.819638  0.009893651     16240.02
      8381.8    0.8248121     2.821556  0.007923038     16240.83
        8382    0.8250678     2.822788  0.006017201     16241.46
      8382.2    0.8256235     2.823828  0.003705564     16242.29
      8382.4    0.8263609     2.824452  0.002658163      16243.1
      8382.6    0.8271158     2.824521  0.000491876     16243.95
      8382.8     0.828034     2.824914 -0.001147812     16244.69
        8383    0.8289936     2.824222 -0.002780062     16245.83
      8383.2    0.8301622     2.823534 -0.005249286     16246.61
      8383.4    0.8314804     2.822297 -0.006729487     16247.56
      8383.6    0.8328998     2.820715 -0.008537587      16248.5
      8383.8    0.8343609     2.818838 -0.009983962     16249.24
        8384    0.8358749     2.816704  -0.01176414     16250.02
      8384.2    0.8373154     2.814309  -0.01324061     16250.76
      8384.4    0.8389896     2.811304  -0.01474905     16252.29
      8384.6    0.8403813     2.808246  -0.01629736     16252.54
      8384.8    0.8419505     2.804904  -0.01746684     16253.23
        8385    0.8435035     2.801271  -0.01904689     16253.54
      8385.2    0.8450757      2.79733  -0.02100444     16254.08
      8385.4    0.8465822     2.793008  -0.02186822      16254.6
      8385.6    0.8480405     2.788101  -0.02268336     16255.16
      8385.8    0.8493043     2.783777  -0.02324782     16255.08
        8386    0.8507748     2.779183  -0.02372529     16256.49
      8386.2    0.8520785      2.77441  -0.02502719     16256.83
      8386.4    0.8532876     2.769121  -0.02696764     16257.66
      8386.6       0.8544     2.763755  -0.02814654     16258.28
      8386.8    0.8557275     2.757609  -0.02895869     16258.85
        8387    0.8569183     2.751893  -0.03066817     16259.64
      8387.2    0.8581679     2.745954  -0.03063875     16260.31
      8387.4    0.8593392     2.739221  -0.03116689     16261.24
      8387.6    0.8604056     2.733098  -0.03173326     16261.67
      8387.8    0.8616541     2.726959   -0.0309068      16263.1
        8388    0.8627571     2.720567  -0.03193222     16263.56
      8388.2    0.8640168     2.714495  -0.03162985      16264.6
      8388.4     0.865414     2.707553  -0.03096438     16266.18
      8388.6    0.8665997     2.701655  -0.03142371     16266.15
      8388.8    0.8678067     2.695796  -0.02926065        16267
        8389    0.8689878     2.689356  -0.02912343     16267.62
      8389.2    0.8703368     2.684144  -0.02847649     16268.88
      8389.4    0.8716684     2.678357  -0.02741484     16269.51
      8389.6    0.8730712     2.673014  -0.02686949     16269.79
      8389.8    0.8745891     2.667424  -0.02613863     16270.55
        8390    0.8759936     2.662648  -0.02555224     16270.67
      8390.2    0.8774892     2.657446  -0.02346089        16271
      8390.4    0.8790954     2.652573  -0.02354891     16271.73
      8390.6    0.8806263     2.648656  -0.02225788     16271.96
      8390.8    0.8821769     2.643809  -0.02219303     16271.97
        8391     0.883818      2.63964  -0.02340089     16271.96
      8391.2    0.8857738     2.634818   -0.0231559     16273.43
      8391.4    0.8875518     2.629935  -0.02222369     16273.81
      8391.6    0.8893788     2.625285  -0.02101225      16274.2
      8391.8    0.8914918     2.621861  -0.01974189     16275.36
        8392    0.8933854     2.618008  -0.01926575     16275.82
      8392.2    0.8954536     2.614141   -0.0195841     16276.27
      8392.4    0.8976519     2.609872  -0.01933626     16277.31
      8392.6     0.900089     2.606193  -0.01880219     16278.17
      8392.8    0.9024031     2.602539  -0.01708743     16278.57
        8393    0.9046766       2.5991  -0.01636159      16278.6
      8393.2    0.9071596     2.596202  -0.01538506     16279.63
      8393.4    0.9097811     2.593104  -0.01490499     16280.05
      8393.6    0.9127293     2.590231   -0.0137734     16281.95
      8393.8     0.915504     2.587176  -0.01364208      16282.3
        8394    0.9184489     2.585183  -0.01197919      16283.3
      8394.2    0.9214115      2.58219  -0.01017284      16283.9
      8394.4    0.9245423     2.580648 -0.009835325     16284.75
      8394.6    0.9276404     2.579037 -0.008066676     16284.97
      8394.8    0.9309396     2.577315   -0.0082799     16285.58
        8395     0.934327     2.575737 -0.007656013      16285.7
      8395.2    0.9376895     2.574024 -0.007234938     16286.45
      8395.4    0.9409942     2.572913 -0.005721976     16286.93
      8395.6    0.9445278     2.571527 -0.004408251     16287.39
      8395.8    0.9480282     2.571159 -0.003739113     16287.86
        8396    0.9515211     2.570497 -0.002215276     16288.87
      8396.2    0.9551086     2.569921 -0.002434625     16290.21
      8396.4    0.9586769     2.569755 -0.002116475     16291.29
      8396.6    0.9621873     2.569212 -0.0008175756     16292.23
      8396.8    0.9656127     2.568804 -0.0009661624     16292.95
        8397    0.9691919     2.569267 -0.0002241378      16294.2
      8397.2    0.9725149     2.568982 -2.361259e-05     16294.65
      8397.4     0.975934     2.569032 -0.0005668872     16295.89
      8397.6    0.9794161     2.568785 -0.0003685001     16295.85
      8397.8    0.9830064     2.568814 -0.0006581874     16296.41
        8398    0.9864057     2.568687 9.087187e-06     16296.56
      8398.2    0.9896194     2.568506 0.0006403122     16297.28
      8398.4    0.9926837     2.568793 9.191276e-05     16297.49
      8398.6    0.9957131     2.569326  0.001180937     16297.68
      8398.8    0.9987247     2.568761  0.000161163     16297.81
        8399     1.001743     2.569451 -0.000806937     16298.63
      8399.2     1.004564     2.568922 -0.0009067375      16298.8
      8399.4      1.00749      2.56868 -0.002237974     16300.33
      8399.6     1.010406     2.568035 -0.002974693     16301.45
      8399.8     1.013116      2.56766 -0.003008329     16301.73
        8400     1.015857     2.566961 -0.003031497     16302.34
        8401     1.029565     2.563622 -0.003078723     16305.46
        8402     1.043379     2.560776 -0.002687881     16308.57
        8403      1.05749     2.557645 -0.001565368     16311.58
        8404     1.071006     2.556209  1.45443e-05     16316.35
        8405     1.083274      2.55736  0.002252137     16319.97
        8406      1.09375     2.560834  0.004605291      16324.3
        8407     1.100713     2.566653    0.0061968     16328.96
        8408     1.103618      2.57463   0.00683023     16334.21
        8409     1.102949     2.582147  0.006799541     16338.75
        8410     1.099665     2.588155  0.006218544     16343.33
        8411     1.094478     2.593852  0.005998417     16345.94
        8412     1.088233     2.599504  0.006390312     16349.79
        8413     1.081358     2.606141  0.007440018     16354.57
        8414     1.074003     2.613716  0.008831718     16359.82
        8415     1.066108     2.623612  0.009974946     16364.87
        8416     1.058233     2.634831   0.01096663     16369.04
        8417     1.050739     2.646041   0.01116625     16373.18
        8418     1.043608     2.657583   0.01102332     16378.01
        8419     1.036721     2.668277   0.01080888     16382.01
        8420     1.029871     2.678925   0.01059037     16385.77
        8421     1.023058     2.689276   0.01085656     16389.57
        8422     1.016158     2.699944   0.01149804     16393.21
        8423      1.00902     2.711703   0.01250658     16396.08
        8424     1.002645     2.724917   0.01334528     16397.87
        8425    0.9973422     2.739303   0.01404339     16400.12
        8426    0.9925646     2.753325   0.01409776     16402.42
        8427    0.9882621     2.767876    0.0135641     16406.03
        8428    0.9840358     2.781308   0.01241526     16409.24
        8429    0.9804107     2.793559     0.010065      16412.6
        8430    0.9775803     2.802986  0.007251952     16416.05
        8431    0.9757289     2.808136  0.003813479     16421.28
        8432    0.9751418     2.810316 0.0001024423     16426.16
        8433    0.9755585     2.808813 -0.003527491     16430.19
        8434    0.9767347     2.803396 -0.007249796     16433.47
        8435    0.9782422     2.794026  -0.01050041     16437.44
        8436     0.979924     2.781316  -0.01317879     16440.48
        8437    0.9815663     2.766811  -0.01492566      16443.5
        8438    0.9833016     2.750681  -0.01610451     16446.74
        8439    0.9848791     2.734324  -0.01689752     16451.29
        8440    0.9864044     2.716898  -0.01717558     16456.99
        8441      0.98774     2.699221  -0.01723175     16461.17
        8442    0.9888882     2.681979  -0.01686775     16464.85
        8443    0.9895349     2.665397  -0.01592525     16469.16
        8444     0.989986     2.649427  -0.01474549     16473.11
        8445    0.9904476      2.63552  -0.01321968     16476.04
        8446    0.9914882     2.622997  -0.01176897     16478.79
        8447    0.9922209     2.612518  -0.01099429     16481.43
        8448    0.9927966     2.602352  -0.01089471     16485.14
        8449    0.9931826     2.591543  -0.01190249      16489.7
        8450    0.9934523     2.579418  -0.01331034     16494.62
        8451     0.993534     2.564908  -0.01469355     16499.05
        8452    0.9933533      2.54911  -0.01552926     16502.62
        8453    0.9933812     2.532769   -0.0156625     16506.96
        8454    0.9935399     2.517301   -0.0150422     16511.01
        8455    0.9935101     2.502258  -0.01386062     16514.07
        8456    0.9937237     2.488941     -0.01202     16517.88
        8457    0.9940525     2.477327 -0.009604345     16521.68
        8458     0.994535     2.469221 -0.006768144     16526.54
        8459     0.994817     2.463841 -0.003577929      16530.3
        8460     0.994664     2.461869 -0.0007878683     16533.67
        8461    0.9945551     2.463015      0.00215     16536.83
        8462    0.9943902     2.466069  0.004625906     16541.17
        8463    0.9938657     2.472441  0.006622369     16544.45
        8464    0.9929645     2.480372  0.008454065     16547.81
        8465     0.991355     2.489504  0.009643054     16551.65
        8466    0.9890129     2.499886   0.01053322     16555.58
        8467    0.9861297     2.511013   0.01122833     16559.06
        8468     0.982437     2.522505   0.01147575     16562.69
        8469    0.9777338     2.534418     0.011243     16566.02
        8470     0.972599     2.545789    0.0105835     16568.51
        8471    0.9674491     2.555985   0.00941517     16571.35
        8472    0.9625784     2.564839   0.00779929      16574.4
        8473    0.9586337     2.572078  0.006013341     16577.88
        8474    0.9555147     2.576986  0.004038258     16582.28
        8475    0.9531533     2.580038  0.001857405     16585.96
        8476    0.9515135     2.580992 3.561717e-05     16588.66
        8477    0.9509781     2.579508  -0.00156363     16590.64
        8478    0.9517413     2.577128 -0.002369148     16593.34
        8479    0.9538231     2.573784 -0.002484996     16597.32
        8480    0.9571244     2.571516 -0.001954915      16602.5
        8481    0.9617263     2.569568 -0.0004268412     16608.54
        8482    0.9671548     2.569309  0.001623652     16613.24
        8483    0.9728936     2.572076  0.004600049        16618
        8484    0.9788271      2.57801  0.008170901     16622.17
        8485    0.9844201     2.587968   0.01170387      16624.5
        8486    0.9899388     2.601992   0.01492556     16626.76
        8487    0.9952896     2.618892   0.01752278     16629.94
        8488     1.000377     2.637713   0.01890849     16633.21
        8489     1.005207     2.658059   0.01940991     16636.17
        8490     1.009519     2.677626    0.0191383     16640.23
        8491     1.013336     2.696532   0.01771929     16645.58
        8492     1.016315     2.714266   0.01583723      16650.6
        8493     1.018667     2.728936   0.01328625     16655.37
        8494     1.020456     2.740975   0.01040637     16658.37
        8495     1.021932     2.749677  0.007881467     16660.61
        8496     1.022854     2.755891  0.005485783     16664.23
        8497     1.023441     2.760462  0.003642862     16667.24
        8498      1.02379     2.762918  0.002048586     16670.06
        8499     1.023719     2.764248 0.0005744126      16672.5
        8500     1.024003     2.764086 -0.0006994993     16675.26
        8501     1.024798      2.76276 -0.002354773     16680.38
        8502      1.02568      2.76012 -0.004127988     16685.73
        8503     1.026541     2.754829 -0.006276841     16690.62
        8504     1.027624     2.747574  -0.00856453     16694.76
        8505     1.028746     2.737653  -0.01071605     16697.35
        8506      1.03022     2.725862  -0.01292799     16700.37
        8507      1.03195     2.711965  -0.01479327     16704.05
        8508     1.033748     2.695862  -0.01682489     16707.62
        8509     1.035364     2.678479  -0.01867993     16710.82
        8510     1.036774     2.658563  -0.02013128     16714.48
        8511     1.038214     2.637245   -0.0215362     16719.02
        8512      1.03968     2.615337  -0.02243836     16723.85
        8513     1.042311     2.592335  -0.02317443     16729.31
        8514     1.046272     2.568809  -0.02383706     16730.46
        8515      1.05016     2.544547  -0.02418507      16717.6
        8516     1.051291     2.519988  -0.02418001      16695.3
        8517     1.051538     2.495594  -0.02350632     16687.94
        8518     1.050989     2.472089  -0.02204481     16687.03
        8519     1.049493     2.450522  -0.02008609     16686.67
        8520     1.048315     2.431809  -0.01754283     16686.89
        8521     1.045858      2.41525  -0.01457027     16689.82
        8522     1.042299     2.401918  -0.01137075     16693.48
        8523     1.039216     2.392241  -0.00775633     16699.45
        8524     1.036955     2.386326 -0.004133415     16705.46
        8525     1.035208     2.384225 -0.0007438463     16708.29
        8526     1.031562     2.385384  0.002391482     16711.33
        8527     1.026396     2.389266  0.005300209     16714.92
        8528     1.021986     2.395892  0.007830786     16722.76
        8529     1.017922     2.405426   0.01004506     16729.37
        8530     1.013428     2.416707   0.01162109     16731.82
        8531     1.008883     2.429446   0.01250868     16732.31
        8532     1.005413     2.442376   0.01299003     16736.35
        8533     1.001265      2.45546   0.01294497     16739.62
        8534    0.9955242     2.468667   0.01263068     16741.83
        8535    0.9904092     2.481226   0.01193502     16748.83
        8536    0.9864836     2.492899   0.01094162      16752.9
        8537    0.9831742       2.5032   0.01014181     16755.76
        8538     0.981246     2.512434  0.009003189      16754.3
        8539    0.9787494     2.521793  0.007849058     16756.15
        8540    0.9752757     2.528912  0.006557454      16764.5
        8541    0.9735594     2.534597  0.005014226     16769.29
        8542    0.9733089     2.538664  0.003530181     16771.08
        8543    0.9728602      2.54185  0.002187441     16776.15
        8544    0.9737875     2.543033  0.001067165     16782.22
        8545    0.9765486     2.543346 -0.0001388539     16786.32
        8546    0.9784419     2.542932 -0.0008543544      16788.5
        8547    0.9803541     2.541294 -0.001571742     16792.23
        8548    0.9820808     2.539615 -0.002200031     16796.31
        8549    0.9838012     2.537059 -0.002471187     16800.34
        8550    0.9865503     2.534132 -0.002726369     16804.48
        8551    0.9888522      2.53141 -0.002868111     16810.68
        8552    0.9909098      2.52871 -0.003001605     16812.92
        8553    0.9936115     2.525587 -0.003215955     16814.87
        8554    0.9963815     2.522126 -0.003472444     16819.03
        8555    0.9983495     2.518546  -0.00370924     16822.57
        8556     1.000723      2.51482 -0.003968057     16826.52
        8557     1.002982      2.51075   -0.0040915     16830.52
        8558     1.004342     2.506254 -0.004270375     16836.09
        8559     1.005141      2.50218 -0.004092085     16839.26
        8560      1.00583     2.497738 -0.003621234     16840.15
        8561     1.006217     2.494382 -0.002971455     16841.95
        8562     1.006792     2.491769 -0.001743447      16847.8
        8563     1.007782     2.490294 -0.0003700372     16851.86
        8564     1.008486     2.490765  0.001359319      16855.6
        8565     1.008338     2.492901  0.003105909     16859.96
        8566     1.007963     2.497206   0.00483709     16866.01
        8567     1.007715     2.502718  0.006567721     16868.99
        8568     1.008201     2.510113  0.007850642     16870.09
        8569     1.008172     2.519172  0.008883227     16873.84
        8570     1.008107     2.528608  0.009514017     16879.33
        8571     1.009332     2.538251  0.009318913     16885.92
        8572     1.010591     2.548169  0.009015037     16893.76
        8573     1.011591     2.556448  0.008553441     16900.12
        8574     1.013015     2.564669     0.007693     16902.93
        8575     1.014162     2.572464  0.007163945     16904.67
        8576     1.014144     2.578941  0.006265593     16909.82
        8577     1.014068     2.585104  0.005137812     16913.01
        8578     1.014521     2.589731  0.004250126     16918.73
        8579     1.015341     2.593016   0.00318415     16924.81
        8580      1.01589     2.595942  0.002226227     16929.05
        8581     1.016567      2.59784  0.001439965     16933.15
        8582     1.016801     2.598636 0.0004672461     16937.15
        8583     1.016806     2.598775 -0.0007364459     16941.29
        8584       1.0174     2.597811 -0.001796086     16943.56
        8585     1.018166     2.594895   -0.0030311      16944.5
        8586     1.018457     2.591452 -0.004346804     16946.25
        8587      1.01856     2.586651 -0.005395347     16948.15
        8588       1.0196     2.580423 -0.006726262     16948.99
        8589     1.020245     2.573313  -0.00785866     16952.74
        8590      1.02042     2.564546 -0.008876073     16960.73
        8591     1.019915     2.555216 -0.009861801     16965.11
        8592     1.017936     2.544919  -0.01053247     16965.83
        8593     1.016772     2.533866  -0.01116741     16965.87
        8594     1.016111     2.522417   -0.0116327     16969.99
        8595     1.014329     2.510547  -0.01167321     16973.47
        8596     1.012422     2.498388  -0.01146944     16976.63
        8597     1.010838     2.487173  -0.01130573     16978.57
        8598     1.009272     2.476539  -0.01085385     16980.96
        8599     1.007879     2.465324  -0.01039682     16984.81
        8600     1.006264     2.454973 -0.009900591     16991.05
        8601     1.004408     2.445586 -0.009099272      16995.2
        8602     1.002645     2.436936  -0.00821577     16996.02
        8603     1.001075     2.428927 -0.007374413     16999.46
        8604    0.9999334      2.42211 -0.006415696     17006.41
        8605    0.9990734     2.416088 -0.005514804     17013.16
        8606    0.9980657     2.411274  -0.00445202     17017.08
        8607    0.9969673     2.406868 -0.003537609     17021.08
        8608    0.9962922     2.404302 -0.002634782     17026.11
        8609    0.9948296     2.401938 -0.001797287      17028.8
        8610    0.9934059     2.400735 -0.001172908      17031.5
        8611    0.9930838     2.399678 -0.000626669     17035.95
        8612    0.9933026      2.39961 -0.0003817065     17040.76
        8613    0.9936495     2.399431 2.583749e-05     17043.59
        8614     0.993046     2.399208 7.462151e-05     17045.43
        8615    0.9924328     2.399782   1.5149e-05     17049.93
        8616    0.9917853     2.399909 -3.637247e-05     17052.05
        8617    0.9916442     2.399492 -0.000320662     17053.23
        8618    0.9910996     2.399062 -0.000387793     17055.04
        8619    0.9906188     2.398499 -0.0003359665     17056.34
        8620    0.9907716     2.398357 -0.0001979735     17055.87
        8621     0.991274     2.398148 -0.000266001     17051.07
        8622     0.992697      2.39827 -0.0002522595     17030.98
        8623     0.994367     2.397435 -0.000427236     16946.22
        8624    0.9941858     2.397348 -0.0003123225     16813.72
        8625    0.9939428     2.396439 -0.0001927295     16841.62
        8626    0.9933829     2.397021 -0.0003085445     16901.19
        8627     0.995299     2.396664 4.148651e-05     17051.81
        8628    0.9969462     2.396114 -6.634014e-06     17089.83
        8629    0.9983862     2.396605  0.000213184     17100.09
        8630    0.9998597     2.396995 0.0006714185     17105.25
        8631     1.001148     2.397517 0.0008684965     17111.78
        8632     1.002391       2.3988  0.001058779     17117.68
        8633      1.00337     2.400079  0.001509979     17120.08
        8634     1.003567      2.40123  0.001597628     17121.45
        8635     1.003618     2.403557  0.001880997     17125.63
        8636     1.003501      2.40519   0.00213478     17130.86
        8637     1.003363     2.407603  0.002139698     17136.57
        8638      1.00366     2.409769  0.002197054     17139.11
        8639     1.003665     2.412116  0.002152384     17140.73
        8640     1.003921     2.413979  0.002065141     17144.54
        8641     1.003854     2.416212  0.001918697     17146.33
        8642     1.003993     2.418029  0.001996437     17147.09
        8643     1.004452      2.41979  0.001751509      17149.5
        8644     1.005206     2.421964   0.00160018     17153.03
        8645     1.005787     2.423218   0.00139033     17155.88
        8646     1.005677      2.42443  0.001030978      17160.7
        8647     1.005733     2.425352  0.000946135     17165.34
        8648     1.006203     2.426088 0.0008680255      17169.7
        8649     1.006998     2.427003  0.000938326     17174.67
        8650     1.007708     2.427902 0.0009254795     17180.46
        8651     1.008119     2.429105 0.0008548065      17185.7
        8652     1.008945      2.42979   0.00078967      17190.1
        8653     1.009926     2.430422 0.0007745775     17193.54
        8654       1.0108     2.431061 0.0006990105     17195.81
        8655     1.011114     2.432203  0.000861697     17199.72
        8656     1.011572     2.432586  0.000946413     17205.21
        8657     1.012544     2.433869 0.0009820335     17208.53
        8658     1.013118     2.434846  0.001195439     17211.58
        8659     1.013408     2.436132   0.00128546     17214.72
        8660     1.013923     2.437368  0.001405937     17215.83
        8661     1.014365     2.439011  0.001487534     17219.98
        8662     1.014086      2.44047  0.001516299      17223.4
        8663     1.013808     2.442082   0.00154423     17226.63
        8664     1.014039     2.443433  0.001506234     17230.14
        8665     1.014167     2.445188  0.001454613     17232.18
        8666     1.013611     2.446495  0.001331838     17233.51
        8667     1.012813       2.4479 0.0009283555     17238.27
        8668     1.011766      2.44876  0.000599911     17241.66
        8669     1.011297     2.448901  0.000177308     17244.44
        8670     1.011192     2.448895 -0.000312781     17249.32
        8671     1.009922     2.448609 -0.0007286349     17254.02
        8672     1.007257     2.447509  -0.00137736     17255.73
        8673     1.005354     2.445987 -0.001930187      17259.1
        8674      1.00412     2.443385 -0.002417148     17263.26
        8675     1.003141     2.440889 -0.002819392      17265.6
        8676     1.001661     2.437841 -0.003073536     17267.53
        8677     1.000001     2.434709 -0.003406639     17271.01
        8678    0.9980165     2.431091 -0.003731954     17275.99
        8679    0.9962361     2.427262 -0.004022492     17281.83
        8680    0.9951531     2.422913 -0.004249155     17285.07
        8681    0.9937471     2.418619 -0.004434153     17287.45
        8682     0.992653     2.414095 -0.004433161     17292.67
        8683    0.9920773     2.409525 -0.004570195      17296.3
        8684    0.9916963      2.40518 -0.004593551     17297.96
        8685    0.9912041     2.400338 -0.004589842     17299.23
        8686    0.9903595      2.39572 -0.004614149     17300.53
        8687    0.9896037     2.391166 -0.004252434     17302.64
        8688    0.9893954     2.386724 -0.003988869     17305.38
        8689    0.9894774     2.383329 -0.003608556     17309.25
        8690    0.9897053     2.379765 -0.003201053     17312.63
        8691    0.9902518     2.376732 -0.002872075     17316.75
        8692    0.9907433     2.373919 -0.002401557      17319.7
        8693    0.9903851      2.37184 -0.001960424     17323.03
        8694    0.9904007     2.370159  -0.00150907     17327.17
        8695    0.9906811      2.36889   -0.0011716     17331.38
        8696    0.9904126     2.367883 -0.0008652565     17335.66
        8697    0.9904086     2.367154 -0.0006307645     17334.84
        8698    0.9906705     2.366698 -0.000522092     17322.59
        8699    0.9906864     2.366367 -0.0004680825     17310.68
        8700    0.9906559     2.365795 -0.0004686775     17316.03
        8701    0.9907706     2.365282  -0.00059933     17327.53
        8702    0.9909789     2.364823 -0.0008190215     17340.81
        8703    0.9913236      2.36397  -0.00109733     17349.59
        8704    0.9913372     2.362519 -0.001476726     17354.73
        8705    0.9911456     2.360892 -0.001820783     17355.49
        8706    0.9910264     2.358916 -0.002200562     17347.07
        8707    0.9908779     2.356687 -0.002644246     17338.09
        8708    0.9909683     2.353716 -0.003004106     17342.65
        8709    0.9912096     2.350315 -0.003348836     17352.91
        8710    0.9913092       2.3469 -0.003558715     17365.16
        8711    0.9908566     2.343291 -0.003789544     17373.64
        8712    0.9903808     2.339482  -0.00381614     17379.25
        8713    0.9903897     2.335157 -0.003778509     17383.97
        8714    0.9905415     2.331635 -0.003546172     17387.75
        8715    0.9905194     2.328177 -0.003112953     17392.58
        8716    0.9902473     2.325297 -0.002684902     17397.03
        8717    0.9900355     2.322705 -0.002226759      17400.5
        8718    0.9902485     2.320895 -0.001813988     17404.21
        8719    0.9906265      2.31927 -0.001409767      17409.6
        8720    0.9907663     2.318041 -0.001024368     17413.53
        8721    0.9913138     2.317066 -0.0007749345     17416.63
        8722    0.9918276     2.316798  -0.00055268     17417.66
        8723    0.9920668      2.31617 -0.0005153665     17419.92
        8724    0.9920477      2.31583 -0.0005550025     17423.33
        8725    0.9926664     2.315005 -0.0004859795     17428.15
        8726    0.9927898     2.314578 -0.0005031835     17431.33
        8727    0.9929477     2.314227 -0.000484435     17436.11
        8728    0.9931065     2.313818 -0.0004208025     17439.43
        8729    0.9937146     2.313067  -0.00042928     17442.68
        8730    0.9941092     2.312895 -0.0003407555     17444.65
        8731    0.9946491     2.312509 -0.000250388     17446.49
        8732      0.99581     2.312455 -0.0001574845     17450.17
        8733    0.9971951     2.312065 -5.81015e-05     17456.05
        8734    0.9981682     2.312265 -4.580552e-05     17462.07
        8735    0.9990569     2.312277 0.0001271215     17465.13
        8736    0.9998048     2.312271 9.024949e-05     17466.62
        8737     1.000442     2.312574  0.000199147     17469.37
        8738     1.001356     2.312626 0.0002114165     17474.57
        8739     1.002049     2.313074 0.0001931755     17479.67
        8740     1.002813     2.313117  0.000200431     17483.16
        8741      1.00353     2.313347  0.000260268     17483.36
        8742     1.004482     2.313428 0.0003870505     17484.88
        8743     1.005263     2.314115 0.0004086865     17488.26
        8744       1.0055     2.314665 0.0004788485      17490.8
        8745     1.005812     2.314981 0.0004768995     17494.52
        8746     1.006227     2.315343  0.000385427     17497.93
        8747     1.006374     2.316022 0.0004477065     17498.58
        8748      1.00665     2.316207 0.0004344735     17499.81
        8749     1.007144     2.316772  0.000397317     17501.54
        8750     1.007814     2.317081    0.0005133     17506.02
        8751     1.008075     2.317612 0.0004562715     17509.58
        8752     1.007848      2.31826  0.000486453     17511.65
        8753     1.007567     2.318597  0.000471853     17515.06
        8754     1.007465     2.319027  0.000459058     17519.94
        8755     1.007787     2.319499  0.000424507     17523.36
        8756     1.007953     2.320096  0.000356008     17526.25
        8757     1.008035     2.320295 0.0003808835      17528.9
        8758      1.00801     2.320451 0.0002432115     17531.33
        8759     1.007653     2.321022    0.0002549      17533.5
        8760     1.006801     2.321069 0.0002765885     17538.46
        8761     1.006028     2.321315 0.0002158345     17543.05
        8762     1.004752     2.321557  0.000177294     17548.22
        8763     1.003723     2.321886   0.00020723     17552.39
        8764     1.002912     2.321778 0.0001913085     17554.64
        8765     1.001813     2.322144 0.0001061905     17557.11
        8766     1.000937     2.322322 0.0002024005     17560.79
        8767    0.9999842     2.322311  0.000103732     17562.89
        8768      0.99904     2.322588  3.68945e-05     17565.56
        8769    0.9985794     2.322559 -1.485999e-05     17569.51
        8770    0.9978832      2.32247  -9.9323e-05      17572.6
        8771    0.9966439     2.322251 -9.346699e-05     17575.28
        8772     0.995541     2.322191 -0.000180722     17578.44
        8773    0.9944811     2.322185 -0.0002354815     17580.99
        8774    0.9936866     2.321747 -0.0004698625     17584.68
        8775    0.9932994     2.321309 -0.000654151     17588.16
        8776    0.9930177     2.320311 -0.0006537485     17590.63
        8777    0.9928899     2.319568 -0.0008229255     17592.62
        8778    0.9929532     2.319132 -0.000867448     17593.81
        8779    0.9930258     2.318018 -0.001098539     17594.97
        8780    0.9931389     2.316841 -0.001387873      17598.4
        8781    0.9936323     2.315174 -0.001619915     17602.16
        8782    0.9945417      2.31358 -0.001704231     17605.57
        8783    0.9952562     2.311538 -0.001818342     17608.92
        8784    0.9952021     2.310024 -0.001959363     17610.92
        8785    0.9946792     2.307901 -0.002143572     17612.59
        8786    0.9942445     2.305743 -0.002385766     17614.83
        8787    0.9938812     2.302964 -0.002486864     17616.31
        8788    0.9940659     2.300481 -0.002615609     17617.71
        8789    0.9945834     2.297953 -0.002616274     17619.69
        8790    0.9953189     2.295281 -0.002596702     17622.95
        8791    0.9958867     2.292498 -0.002518447     17627.38
        8792     0.996111     2.290095 -0.002473983      17631.7
        8793    0.9962634     2.287879 -0.002361068     17635.03
        8794    0.9964615     2.285385 -0.002267526     17637.25
        8795    0.9965882     2.283054  -0.00219956     17640.27
        8796    0.9966584     2.281024 -0.002112365     17642.64
        8797    0.9965248     2.279081    -0.001964     17644.04
        8798    0.9966448     2.276935 -0.001800729     17646.74
        8799    0.9963585     2.275198 -0.001725837     17647.93
        8800    0.9957134     2.273822  -0.00145033     17649.62
        8801    0.9952924     2.272178 -0.001349802     17652.22
        8802    0.9950494     2.271134 -0.001280212     17654.68
        8803    0.9951272     2.269799 -0.001088926     17657.87
        8804    0.9951607     2.268701 -0.000965495     17661.75
        8805    0.9950711     2.267822 -0.0007905155     17665.34
        8806    0.9948641     2.267272 -0.000687284     17668.35
        8807    0.9946103     2.266637 -0.0005637395     17671.91
        8808    0.9942375     2.265952 -0.000609443     17674.76
        8809    0.9942861     2.265567 -0.000637607      17677.6
        8810    0.9947263     2.264834 -0.0005362465     17679.74
        8811    0.9947936     2.264087 -0.0006108775     17683.39
        8812    0.9944183     2.263807 -0.000596238     17685.86
        8813    0.9941231     2.263124  -0.00055895     17686.56
        8814    0.9940601     2.262449 -0.0006200805     17689.84
        8815    0.9940268     2.261851 -0.0006011825      17693.6
        8816    0.9942893     2.261326 -0.0006861345     17697.62
        8817    0.9946961     2.260719 -0.000718426     17700.93
        8818    0.9952889     2.259705 -0.000902938     17702.91
        8819    0.9957198     2.258977 -0.0009704165      17705.2
        8820    0.9960662     2.257715 -0.0009994075     17707.68
        8821    0.9958391     2.256837 -0.001041411     17708.58
        8822    0.9958336     2.255707 -0.001118128     17709.03
        8823    0.9961306     2.254811 -0.001275572     17707.88
        8824    0.9965908     2.253242 -0.001444121     17706.44
        8825     0.996455     2.251735 -0.001631545     17706.45
        8826      0.99543     2.249931 -0.001671922     17704.64
        8827    0.9947504     2.248285 -0.001725471     17700.07
        8828    0.9947641     2.246554 -0.001737801     17691.69
        8829    0.9950918     2.244833 -0.001974296     17673.37
        8830    0.9960297     2.242979 -0.001876893     17627.62
        8831    0.9982853     2.240388 -0.001536268     17487.82
        8832    0.9995557     2.239047 -0.001793925     17227.69
        8833    0.9955893     2.238688 -0.001219958        17213
        8834    0.9980924     2.235804 -0.001120149     17340.93
        8835    0.9980713     2.235508 -0.001557517     17244.32
        8836    0.9952563     2.234566 -0.001237118     17468.01
        8837    0.9971871     2.232458 -0.001501608     17703.26
        8838    0.9981841     2.230855 -0.001549427     17759.48
        8839     0.998508     2.229502 -0.001404554     17772.74
        8840    0.9989695     2.228368  -0.00120571     17779.41
        8841    0.9994538      2.22684 -0.001069095     17783.21
        8842    0.9997413     2.226032 -0.001011468     17786.03
        8843     0.999984     2.225225 -0.000987976     17788.63
        8844     0.999963     2.224323  -0.00103151     17791.52
        8845    0.9999407     2.222888 -0.001173544     17793.34
        8846     1.000028     2.221906 -0.001187569     17795.49
        8847     1.000335     2.220531 -0.001096952     17797.73
        8848     1.000693     2.219572  -0.00110158     17801.98
        8849     1.000926       2.2185 -0.0009658465     17806.46
        8850     1.001143       2.2175 -0.000958264     17810.06
        8851     1.001222     2.216668 -0.000986923     17812.15
        8852     1.001476     2.215739 -0.000940986      17814.1
        8853     1.001714     2.214552 -0.0009762805     17815.58
        8854     1.001868     2.213736 -0.0009486375     17817.51
        8855     1.001743     2.212763 -0.0008165175     17820.53
        8856     1.001561     2.211945 -0.0008545435     17823.14
        8857        1.001     2.211286 -0.0007500395      17824.4
        8858     1.000785     2.210318 -0.0006597135     17826.76
        8859     1.000588     2.209763 -0.0005081125     17830.07
        8860     1.000429     2.209306 -0.0003752245     17833.83
        8861     1.000034     2.209254 -0.0003332525     17839.62
        8862    0.9998278     2.208817 -0.0003439405     17845.88
        8863    0.9998979      2.20843 -0.0003355815     17850.07
        8864    0.9997564      2.20793 -0.0002790045     17852.07
        8865     0.998743     2.207912 -0.0001459075     17853.67
        8866    0.9976413     2.207701 -9.56885e-05     17854.93
        8867    0.9968926     2.207846  -0.00010455     17856.64
        8868     0.996403     2.207547 -0.0001042645     17858.49
        8869    0.9962092     2.207493 -4.12955e-05     17861.34
        8870    0.9962623     2.207284 -6.002508e-06     17864.17
        8871    0.9962606     2.207681 7.711349e-05     17867.39
        8872    0.9959647     2.207523 0.0001202555     17870.43
        8873    0.9958412     2.207802  5.62445e-05     17874.78
        8874    0.9960015     2.207765   8.3545e-05      17878.8
        8875    0.9961602     2.207906 8.129099e-05      17882.3
        8876    0.9959597     2.207858 0.0001914195     17884.28
        8877    0.9957417     2.208127  0.000187424     17886.02
        8878    0.9956357     2.208531  0.000290252     17886.45
        8879    0.9956219     2.208655 0.0003033995     17888.75
        8880    0.9954954     2.209019 0.0002841235     17892.31
        8881    0.9953835     2.209341  0.000349395     17896.42
        8882    0.9953058     2.209667  0.000246156     17898.69
        8883    0.9953665     2.210053  0.000247956      17900.3
        8884    0.9954259     2.210003 0.0002178515     17902.05
        8885    0.9953798     2.210332 0.0002063265     17905.01
        8886    0.9953293     2.210538 0.0002767475     17909.03
        8887    0.9951237     2.210878 0.0002418335     17912.86
        8888    0.9951574      2.21111 0.0002007075     17916.16
        8889    0.9954619       2.2113 0.0001333615     17919.17
        8890    0.9957621     2.211341 -7.683199e-05     17922.71
        8891    0.9959521     2.211412 -0.000191301     17925.33
        8892    0.9960824     2.210803 -0.000244579     17926.69
        8893    0.9962833     2.210535 -0.0003494805     17929.03
        8894    0.9959883     2.210363 -0.000333114     17931.05
        8895    0.9954145     2.210014 -0.0004269415     17934.49
        8896    0.9954333      2.20947 -0.000586205     17938.21
        8897    0.9953814     2.208827 -0.000744394     17940.67
        8898    0.9951286     2.208018 -0.000973178     17943.06
        8899    0.9948451     2.207036 -0.001044385     17946.13
        8900     0.994787     2.205578  -0.00116127     17949.09
        8901    0.9948388     2.204649 -0.001320875     17951.26
        8902      0.99519     2.203373 -0.001378782     17954.75
        8903    0.9956069     2.201753 -0.001588195     17957.57
        8904     0.995787     2.200063 -0.001683006     17960.34
        8905    0.9958167     2.198296 -0.001720625     17961.33
        8906    0.9958939     2.196641 -0.001728089     17963.57
        8907    0.9956696      2.19487 -0.001786549     17966.07
        8908    0.9955008      2.19315 -0.001734065      17968.9
        8909     0.995382      2.19115 -0.001755651     17971.97
        8910    0.9950986     2.189705 -0.001760412      17974.9
        8911    0.9950242     2.187848  -0.00166759     17979.38
        8912    0.9949365     2.186108 -0.001739294     17983.52
        8913    0.9947121      2.18448  -0.00156613     17985.35
        8914     0.994625     2.182748 -0.001607927     17986.26
        8915    0.9946356     2.181583 -0.001495034     17989.02
        8916    0.9950303     2.179677 -0.001481569     17991.27
        8917    0.9951992       2.1785 -0.001437506     17993.05
        8918    0.9952437     2.176821 -0.001288555     17995.65
        8919    0.9953171     2.175833 -0.001293479     17999.16
        8920    0.9954236     2.174523 -0.001187809     18001.81
        8921    0.9954927     2.173326 -0.001243567     18004.85
        8922    0.9954327      2.17207 -0.001172155     18007.01
        8923    0.9956752     2.170859 -0.001067019     18010.69
        8924    0.9959033     2.169834 -0.001036443     18013.14
        8925    0.9963256     2.169058 -0.001001246     18016.29
        8926    0.9963748     2.167924 -0.001006668     18019.32
        8927     0.996494     2.166854 -0.001017094     18022.28
        8928    0.9967713     2.165807 -0.000979534     18023.42
        8929    0.9971741     2.164989 -0.000894404     18024.75
        8930    0.9976288     2.164006 -0.0009395575     18027.59
        8931     0.997968     2.163276 -0.000922657     18030.83
        8932    0.9986533     2.162049 -0.000865608     18033.88
        8933    0.9991083     2.161299 -0.0008909445     18036.83
        8934    0.9994465     2.160544 -0.000749692     18038.94
        8935    0.9994605     2.159712 -0.000769538     18040.83
        8936    0.9998803      2.15905 -0.000799337     18038.12
        8937     1.000527     2.158221 -0.000751813     18013.56
        8938     1.000793     2.157346 -0.0007372255     17962.58
        8939     1.000196     2.156705 -0.0007270055     17942.99
        8940    0.9997146     2.156101 -0.0007143005     17965.98
        8941    0.9993942     2.155313 -0.0007796995     18018.56
        8942     0.999805     2.154489 -0.000869573     18043.69
        8943    0.9999491     2.153586 -0.000916004     18050.96
        8944       1.0001     2.152623 -0.000814082      18056.7
        8945     1.000445     2.151649 -0.0008307435     18062.14
        8946     1.000641     2.151233 -0.0008440365     18066.61
        8947      1.00093     2.150263 -0.000778772      18070.7
        8948     1.001333     2.149247 -0.0009139835     18073.77
        8949     1.001435     2.148533 -0.0008351425     18076.23
        8950     1.001419     2.147577 -0.0007929165     18078.21
        8951      1.00133     2.146923 -0.000826625     18079.65
        8952     1.001658     2.146075 -0.000838301     18082.42
        8953     1.002006     2.145227 -0.000887365     18084.54
        8954     1.002414     2.144224 -0.0009143315     18088.35
        8955     1.002282     2.143373 -0.0009502985     18092.15
        8956     1.001934     2.142418 -0.0009235575     18093.12
        8957     1.001744     2.141426 -0.000829819      18094.1
        8958     1.001542     2.140529 -0.000882132     18096.52
        8959     1.001422     2.140054 -0.0009216045     18098.65
        8960     1.001535     2.138889 -0.000905414     18100.57
        8961     1.001558     2.137739 -0.001027289     18103.19
        8962     1.001463     2.136908 -0.0008595625     18106.08
        8963     1.001258     2.135945 -0.0008685785     18108.91
        8964     1.001012     2.135451 -0.000951859     18112.18
        8965     1.000603     2.134265 -0.0009715235     18115.42
        8966     1.000286       2.1331 -0.001097496     18119.18
        8967     1.000068     2.132059 -0.001019109     18120.95
        8968     1.000096     2.131061 -0.000984137     18122.39
        8969     1.000222     2.130189 -0.001014775     18124.81
        8970     1.000177     2.129164 -0.000910111     18125.67
        8971     1.000112        2.128 -0.001020817     18129.22
        8972     1.000044     2.127421 -0.001008866     18134.16
        8973     1.000133     2.126105 -0.000884162     18137.86
        8974     1.000148     2.125128 -0.0009846255     18139.59
        8975     1.000068     2.124463 -0.0008219265     18141.26
        8976      1.00006     2.123482 -0.000778352     18143.63
        8977     1.000101     2.122818 -0.0007913495     18145.78
        8978     1.000241     2.122015 -0.000732467     18146.75
        8979     1.000508     2.121298 -0.000699755     18148.44
        8980     1.000588     2.120552 -0.0007368515     18150.28
        8981     1.000544     2.120019 -0.0007948615      18152.1
        8982     1.000591     2.119068 -0.000728996     18152.35
        8983     1.000586     2.118118 -0.0007757785     18153.45
        8984     1.000243     2.117636 -0.0007176255     18154.99
        8985      1.00007     2.116915 -0.000601218     18157.11
        8986    0.9999222     2.116197 -0.0006301085     18159.65
        8987    0.9998257     2.115713 -0.000601854     18162.02
        8988     0.999959     2.115116 -0.000505361     18164.75
        8989      1.00008     2.114508 -0.000574078     18166.44
        8990     1.000219     2.114176 -0.000575776     18168.02
        8991     1.000504     2.113417 -0.0005549145     18169.55
        8992     1.000488     2.112813 -0.000577866     18170.18
        8993     1.000257     2.112288 -0.0005680125     18172.04
        8994     1.000185     2.111864 -0.0005264675     18173.87
        8995      1.00038     2.111145 -0.000572768     18176.12
        8996      1.00057     2.110707 -0.0005479705      18179.8
        8997     1.000675     2.109997 -0.0005027655     18182.06
        8998     1.000429     2.109672 -0.0005573185     18184.25
        8999    0.9999836     2.109134 -0.000540481     18185.92
        9000    0.9996136     2.108478 -0.0006239735     18188.19
        9001    0.9994971     2.107835 -0.0005604105     18190.37
        9002    0.9994859     2.107176 -0.000559203     18193.31
        9003    0.9992808     2.106892 -0.0005650185     18196.56
        9004    0.9993992     2.106241 -0.000444983     18200.19
        9005    0.9993172     2.105575 -0.000471913     18202.31
        9006    0.9991384     2.105396 -0.0004255475     18204.53
        9007    0.9993045     2.105005 -0.0003934955     18207.42
        9008    0.9994244     2.104539 -0.000508692     18209.81
        9009    0.9995548     2.104001 -0.000524906     18212.14
        9010     0.999334     2.103362 -0.000452458     18213.24
        9011    0.9990634     2.102905 -0.0004008905     18214.25
        9012    0.9989479     2.102729 -0.000353091     18216.29
        9013    0.9991011     2.102398 -0.000338233        18219
        9014    0.9993462     2.101949 -0.000436731     18221.52
        9015    0.9999777     2.101552 -0.0004607045     18223.86
        9016     1.000526     2.100982 -0.000525638     18226.47
        9017      1.00036     2.100555 -0.000535832     18228.36
        9018    0.9997476     2.099847 -0.000476277     18230.32
        9019    0.9988954     2.099409 -0.000523797     18232.94
        9020    0.9980854     2.099077 -0.0004737615     18236.53
        9021    0.9978083      2.09846 -0.0005042865     18239.66
        9022    0.9976429     2.097952 -0.000574772      18242.2
        9023    0.9975895     2.097392 -0.0005091885     18244.97
        9024    0.9976854     2.096778 -0.0006233795     18247.82
        9025    0.9978197     2.096423 -0.000608723     18249.12
        9026    0.9979352     2.095458 -0.0005747225     18250.84
        9027     0.997927     2.094957 -0.000688108      18253.8
        9028     0.997985     2.094479 -0.0006571615     18257.48
        9029    0.9982086     2.093671  -0.00066878     18260.81
        9030    0.9983658      2.09283 -0.0007107165     18263.42
        9031    0.9984891     2.092282 -0.000735591     18265.09
        9032    0.9988068     2.091636 -0.0007070675     18266.39
        9033    0.9990368     2.090728 -0.0008450885     18267.86
        9034    0.9990975     2.090001 -0.000857337     18269.22
        9035    0.9990229     2.088901 -0.000788106     18272.34
        9036    0.9987949     2.088207 -0.0007521335     18275.67
        9037    0.9987847     2.087576 -0.000667635     18278.38
        9038    0.9987147     2.086993  -0.00066059     18279.72
        9039    0.9990041     2.086231 -0.0007534675     18280.31
        9040     0.999253     2.085564 -0.0008005305     18280.78
        9041    0.9994917     2.084562 -0.0007917025     18282.74
        9042    0.9996731     2.083791 -0.0008875095     18285.06
        9043    0.9996318     2.083064 -0.0007515435      18287.2
        9044     0.999276     2.082014 -0.000725252     18289.77
        9045    0.9988957     2.081556 -0.000820975     18293.24
        9046    0.9986179      2.08089 -0.0008405755     18295.63
        9047    0.9984874      2.07978 -0.0008772205     18298.18
        9048     0.998683     2.078652 -0.0009554395     18300.94
        9049     0.998946     2.078047 -0.0009207355     18302.53
        9050     0.999145     2.077068 -0.0008355995     18301.89
        9051    0.9992533     2.076097 -0.0008941145     18304.06
        9052    0.9993378      2.07531 -0.000831181     18307.44
        9053    0.9998409      2.07447 -0.000898257     18311.13
        9054     1.000214     2.073743 -0.0008379385     18313.61
        9055     1.000282     2.072504 -0.000885536     18315.97
        9056     1.000169     2.071958 -0.000935072     18317.17
        9057     1.000177     2.070928 -0.000824448     18318.44
        9058     1.000131     2.070003 -0.0009088925     18318.45
        9059     1.000175     2.069206 -0.0008620325     18319.66
        9060     1.000573     2.068322 -0.0008195415     18321.55
        9061     1.000914      2.06748 -0.000873358     18322.35
        9062     1.001113     2.066725 -0.000846089     18323.33
        9063     1.001101     2.065713 -0.0008928075     18325.33
        9064     1.001334     2.064938 -0.0008798775     18327.02
        9065      1.00153     2.063909 -0.000824524     18328.48
        9066     1.001302     2.063205 -0.0008844285     18330.52
        9067     1.000831     2.062415 -0.000857465     18332.97
        9068     1.000696       2.0614 -0.000819508     18335.72
        9069     1.000606     2.060479 -0.000786815     18337.93
        9070      1.00054     2.059927 -0.000810579     18340.66
        9071     1.000516     2.059267 -0.000719328     18343.39
        9072     1.000561     2.058158 -0.000818256     18345.65
        9073     1.000655     2.057602 -0.0008468205     18348.39
        9074     1.001047     2.056654 -0.000722399     18350.39
        9075     1.001255      2.05588 -0.0008072605     18352.47
        9076     1.001521     2.055268 -0.000774527     18354.13
        9077     1.001908     2.054373 -0.000734748     18356.23
        9078     1.002076     2.053556 -0.0008051925     18357.99
        9079     1.001772     2.052941 -0.0008215955     18358.48
        9080     1.001842     2.052047 -0.0008341285     18361.18
        9081     1.001724     2.051086 -0.0008227485      18361.7
        9082     1.001483      2.05022 -0.000830706     18361.05
        9083     1.001397      2.04965 -0.000794193      18361.2
        9084     1.001409     2.048725 -0.0008122695     18357.38
        9085     1.001663      2.04791 -0.0008621005     18343.19
        9086     1.001595      2.04697 -0.000805838     18318.31
        9087     1.001144     2.046202 -0.000830397     18299.53
        9088     1.000878     2.045501 -0.0007748015     18292.02
        9089     1.000899     2.044588 -0.000731919     18283.87
        9090     1.001241     2.043871 -0.0008580785     18259.18
        9091     1.001369     2.043274 -0.000856234     18208.64
        9092     1.001695     2.042069 -0.0007236635      18163.1
        9093     1.002499     2.041163 -0.0007841395     18074.75
        9094     1.000393     2.040977 -0.0007865405     18059.83
        9095     1.000378     2.040138  -0.00070621     18214.15
        9096     1.002183     2.038923  -0.00073107     18236.71
        9097     1.002648     2.038338 -0.0006973315     18114.99
        9098     1.001127     2.038052 -0.000697055     18102.12
        9099     1.001116     2.037348 -0.000717298     18207.86
        9100     1.002223     2.036135  -0.00083716     18288.47
        9101     1.002662     2.035469 -0.000901055     18307.87
        9102     1.002626     2.034704 -0.000828466     18328.61
        9103      1.00246     2.033744 -0.000804057     18347.99
        9104      1.00233     2.032821 -0.000757058     18359.65
        9105     1.001886     2.032253 -0.0007409485     18367.38
        9106     1.001373     2.031675 -0.0007750325     18377.47
        9107     1.000833      2.03078  -0.00079866     18394.18
        9108     1.000614     2.029721 -0.0008126205     18411.88
        9109     1.000209     2.029058  -0.00080186     18421.64
        9110      1.00014     2.028425 -0.0007088005     18427.08
        9111     1.000273     2.027573 -0.000776968     18431.86
        9112     1.000115     2.026885 -0.000806702      18434.1
        9113     1.000055      2.02595 -0.0008272785     18436.37
        9114     1.000025     2.025198 -0.000834151     18440.05
        9115     1.000021     2.024264 -0.0007888995     18443.92
        9116    0.9998898     2.023549 -0.000788194     18448.25
        9117    0.9999241     2.022795 -0.000733214     18452.23
        9118     0.999829     2.022045 -0.000741638     18454.08
        9119    0.9999401     2.021331 -0.0007216345     18455.87
        9120      1.00016     2.020582 -0.000805878     18457.98
        9121     1.000388     2.019908 -0.0007863225     18457.84
        9122      1.00049     2.018822 -0.000758842     18458.96
        9123      1.00048     2.018186 -0.000759513     18459.55
        9124     1.000572     2.017547 -0.0006294065     18462.14
        9125     1.000455      2.01687 -0.000637032     18465.25
        9126     1.000107     2.016304 -0.000681917     18467.82
        9127    0.9999845     2.015637 -0.000704976     18470.77
        9128    0.9997707     2.014819 -0.000686957     18472.98
        9129    0.9996009      2.01405 -0.0006733815     18475.41
        9130    0.9997316     2.013556 -0.0006559945     18477.87
        9131    0.9998367     2.012944 -0.0006358595     18478.77
        9132     1.000037     2.012195 -0.000636152     18480.25
        9133     1.000209     2.011507 -0.0006303315     18481.54
        9134     1.000492     2.011012 -0.000599063     18483.96
        9135     1.000428     2.010423 -0.000570517     18486.57
        9136      1.00039     2.009799 -0.000589292     18488.14
        9137     1.000491     2.009225 -0.000591283     18488.36
        9138     1.000672     2.008655 -0.000573756      18488.1
        9139     1.001324     2.008057 -0.0005445335     18488.84
        9140     1.002105     2.007504 -0.0005304475      18489.7
        9141      1.00217     2.007047 -0.000528527     18492.52
        9142     1.001963     2.006533 -0.0004620015      18495.7
        9143      1.00188     2.005943 -0.0005012715     18498.73
        9144     1.001557     2.005656 -0.0005752515     18501.69
        9145     1.001282     2.005041 -0.0005085175     18504.11
        9146     1.001349     2.004232 -0.000507256     18506.46
        9147     1.001439     2.003909 -0.0005142965     18507.91
        9148     1.001446     2.003627 -0.000406777     18509.11
        9149     1.001623     2.002984 -0.000533597     18509.58
        9150     1.001571     2.002605 -0.000539265     18511.02
        9151     1.001276     2.001775 -0.000499909     18511.49
        9152     1.000907      2.00147 -0.000567092     18512.55
        9153     1.000577     2.000985 -0.0004893075     18513.74
        9154     1.000347     2.000336 -0.000582735     18515.75
        9155     1.000386     1.999818 -0.0005887205      18518.2
        9156     1.000324     1.999139 -0.000617231     18519.15
        9157     1.000191      1.99863 -0.0006064485     18520.22
        9158      1.00029     1.997867 -0.0005917885     18523.01
        9159     1.000598     1.997392 -0.0005547775     18525.77
        9160     1.000844     1.996772 -0.000606075     18527.56
        9161     1.001165     1.996411 -0.000639197     18530.34
        9162     1.001526     1.995443 -0.0006095925      18532.4
        9163     1.001908     1.994835 -0.000698814     18534.62
        9164     1.001997     1.994333 -0.000584672     18538.19
        9165      1.00183     1.993615 -0.000549206     18540.16
        9166     1.001499     1.993104 -0.0006279475     18541.41
        9167     1.001537     1.992638 -0.0006490805        18543
        9168     1.001579     1.991822 -0.0007023235     18546.07
        9169     1.001668     1.991019 -0.0007340995     18549.74
        9170     1.001964     1.990295 -0.0006962305     18552.45
        9171     1.002107     1.989702 -0.000657016     18554.02
        9172     1.002168     1.989037 -0.0006890505     18554.44
        9173     1.002134     1.988391  -0.00072995     18554.43
        9174     1.002043     1.987539 -0.000669514     18554.34
        9175     1.001968     1.986782 -0.000728499     18555.42
        9176      1.00192     1.986359 -0.000736675     18556.74
        9177     1.001905     1.985477 -0.0007046205     18556.47
        9178     1.002001     1.984592 -0.000685882     18557.04
        9179       1.0019     1.983964  -0.00060439     18557.79
        9180     1.001956     1.983615 -0.000591912      18558.5
        9181     1.002107     1.983059 -0.000641822     18560.52
        9182     1.001923     1.982225  -0.00067319     18562.13
        9183      1.00154     1.981396 -0.000768651     18562.19
        9184     1.001225     1.980922 -0.0007259655     18562.66
        9185     1.001309     1.979985 -0.0006117255     18564.81
        9186     1.001493     1.979321 -0.0006795125     18566.72
        9187     1.001395     1.978949 -0.000589125     18568.65
        9188     1.001171     1.978204 -0.0005943445     18569.76
        9189     1.001065     1.977628 -0.000679446     18570.87
        9190     1.000859     1.976943 -0.0006078735     18570.62
        9191     1.000954     1.976232 -0.0006052665     18572.41
        9192     1.001004     1.975773 -0.0006158395     18575.15
        9193     1.001049     1.975207 -0.0005463965     18577.96
        9194     1.001016      1.97448 -0.0006706865     18579.82
        9195     1.000949     1.974046 -0.000671873     18579.83
        9196     1.001085      1.97309 -0.0006260165     18580.05
        9197     1.001185      1.97252 -0.000681728     18580.13
        9198      1.00125     1.971976 -0.000621058     18581.19
        9199     1.001284     1.971319 -0.0005981195     18582.45
        9200     1.001427     1.970606 -0.000584966     18585.58
        9201     1.001366     1.970127 -0.000632551     18587.47
        9202     1.001241     1.969636 -0.000622613     18588.09
        9203     1.001437     1.968789 -0.000639426     18589.28
        9204     1.001652     1.968115 -0.000704344     18590.49
        9205     1.001615      1.96757 -0.0006676585     18590.96
        9206     1.001827     1.966819 -0.0006824505     18592.88
        9207     1.002155     1.966118 -0.0007012895     18594.06
        9208     1.002486     1.965386 -0.0006906465     18595.28
        9209     1.002741     1.964764 -0.0007002675     18598.07
        9210     1.002842     1.964056 -0.0006289195     18601.24
        9211     1.002813     1.963317 -0.000739932     18603.49
        9212     1.002671      1.96287 -0.0007051025     18604.59
        9213     1.003057     1.961805 -0.000673975     18606.72
        9214     1.003349     1.961236 -0.000727691     18607.12
        9215     1.003658     1.960621 -0.000703987     18609.25
        9216     1.003738     1.959959  -0.00078029     18611.19
        9217     1.003922     1.958989  -0.00077536     18612.31
        9218      1.00399     1.958115 -0.000751329     18613.67
        9219     1.003687      1.95752 -0.000704955     18614.33
        9220     1.003508     1.956954 -0.000611158     18615.38
        9221     1.003352     1.956169 -0.000727088     18615.98
        9222     1.003196      1.95567 -0.000755055     18617.78
        9223     1.002905     1.954611 -0.000725045      18619.4
        9224     1.002345     1.953934 -0.0007563215     18621.18
        9225     1.001946     1.953269 -0.0006766955      18622.5
        9226     1.001677     1.952645 -0.000706602     18624.64
        9227     1.001666     1.951905 -0.0007822515     18626.93
        9228     1.001535     1.951107  -0.00078085     18628.73
        9229     1.001348      1.95014 -0.000769253     18630.35
        9230     1.001052     1.949521 -0.0007668175     18631.59
        9231     1.000911     1.948828  -0.00069883     18631.91
        9232     1.000892      1.94804 -0.0007175455     18632.27
        9233     1.000985     1.947344 -0.000658064     18632.61
        9234     1.001287     1.946651 -0.0006170565     18632.22
        9235     1.001446     1.946195 -0.000680754     18632.65
        9236     1.001372     1.945572 -0.000749612     18634.57
        9237     1.001098     1.944621 -0.0007820845     18636.08
        9238     1.000659     1.943653 -0.0007257275     18636.79
        9239     1.000291     1.943067 -0.000734075     18637.12
        9240     1.000312     1.942669 -0.0006793225     18638.66
        9241     1.000253     1.941685 -0.0006584225     18640.28
        9242     1.000144     1.940935 -0.000765119     18641.81
        9243    0.9999815     1.940433 -0.0006752225     18642.16
        9244      1.00024     1.939608 -0.0007400715     18642.06
        9245      1.00036     1.938984 -0.000775176      18639.9
        9246     1.000688     1.937975 -0.000709807     18638.29
        9247     1.000897     1.937333 -0.000699968     18635.18
        9248      1.00096     1.936769 -0.000718348     18625.59
        9249     1.001069     1.936184 -0.0006239455     18585.12
        9250     1.001629     1.935102 -0.0006532795     18474.45
        9251     1.000087     1.934837 -0.0006785665     18404.54
        9252    0.9996342     1.934156 -0.0006586015      18515.9
        9253     1.000575      1.93347  -0.00072257      18582.6
        9254     1.001499     1.932467 -0.0006350555     18515.31
        9255     1.000906     1.931947 -0.0007062455     18424.57
        9256      1.00044     1.931616 -0.0006701175     18513.31
        9257     1.000675     1.930645 -0.000723895     18614.27
        9258     1.000851     1.929787 -0.000752811     18661.03
        9259     1.000649     1.929051 -0.000703644     18670.92
        9260     1.000611     1.928604 -0.0006052685     18675.14
        9261     1.000605     1.927831 -0.000565298     18677.37
        9262     1.000658     1.927366 -0.000618909     18679.89
        9263     1.000553      1.92679 -0.0006127625     18681.67
        9264     1.000418     1.926129 -0.0006615195     18683.33
        9265     1.000147     1.925379 -0.000682817     18684.11
        9266    0.9999375      1.92472 -0.000686963     18684.74
        9267    0.9997572     1.924059 -0.0006576425     18684.87
        9268    0.9992934     1.923381 -0.0006592125     18684.72
        9269    0.9989656     1.922749 -0.000727339      18686.1
        9270    0.9989878     1.922083 -0.000660999      18687.5
        9271    0.9992001     1.921149 -0.000710507     18688.23
        9272    0.9993292     1.920737 -0.000668557     18690.45
        9273    0.9995759     1.919907 -0.0005882535     18692.73
        9274    0.9998374     1.919409 -0.0006381415     18694.26
        9275     1.000087     1.918796 -0.000573979     18694.88
        9276     1.000073     1.918184 -0.0006181935     18694.39
        9277      1.00003     1.917611 -0.000592875     18695.75
        9278     1.000187     1.916936 -0.000612502     18698.19
        9279     1.000342     1.916425 -0.0006223325     18699.46
        9280     1.000546     1.915734 -0.000627655     18700.42
        9281     1.000609     1.915122 -0.000663673     18701.52
        9282     1.000643     1.914425 -0.000674113     18703.11
        9283     1.000789      1.91377  -0.00065349     18703.68
        9284     1.000786     1.913038 -0.0006059575     18703.99
        9285     1.000637     1.912508 -0.0005845245      18706.1
        9286     1.000398     1.912001 -0.0005990845     18707.92
        9287     1.000102     1.911432 -0.0006273295     18708.97
        9288    0.9997872     1.910642 -0.000647989     18710.19
        9289    0.9994219     1.909998 -0.000666924     18711.63
        9290    0.9991115     1.909409 -0.0005884535     18712.17
        9291    0.9990812     1.908764 -0.0005370705     18712.96
        9292    0.9988726     1.908288 -0.000491186     18713.52
        9293    0.9988962      1.90785 -0.0004868915     18714.54
        9294    0.9992349     1.907445 -0.000558034     18715.98
        9295    0.9995088     1.906817 -0.000557563      18716.8
        9296    0.9994755     1.906056 -0.0006468835     18717.78
        9297    0.9992807      1.90562 -0.000609688     18718.81
        9298    0.9993068     1.904857 -0.0005555815     18720.81
        9299    0.9991783     1.904378 -0.0005932795     18722.47
        9300    0.9993697     1.903833 -0.000555275     18725.79
        9301    0.9994022     1.903247 -0.0005583345     18726.41
        9302    0.9991299     1.902636 -0.000554088     18726.16
        9303    0.9991616     1.902145 -0.0006133355     18726.79
        9304    0.9992485     1.901617 -0.000559847     18726.77
        9305    0.9993922     1.900793 -0.000519427     18726.19
        9306    0.9996638     1.900397 -0.000575837     18727.02
        9307     1.000033     1.900067 -0.0005093205     18728.69
        9308     1.000234     1.899314 -0.000535347      18729.4
        9309     1.000276     1.898756 -0.0005902885      18730.2
        9310     1.000361     1.898255 -0.000567656     18731.81
        9311     1.000458     1.897706 -0.000596918     18730.93
        9312     1.000968     1.897043 -0.000592619     18731.77
        9313     1.001449     1.896368 -0.000613979     18733.37
        9314     1.001513     1.895885 -0.000598616      18734.1
        9315     1.001477      1.89525 -0.000543019     18734.92
        9316     1.001443     1.894649 -0.0005814215      18736.3
        9317     1.001294     1.894196   -0.0005632     18738.11
        9318     1.001377     1.893559 -0.000541329     18741.23
        9319     1.001279     1.892997 -0.000558718     18742.81
        9320     1.001252     1.892483 -0.0006246965     18742.08
        9321     1.001117     1.891961  -0.00059632     18741.44
        9322     1.000855      1.89106 -0.0005814775     18739.57
        9323     1.000768     1.890612 -0.000641817      18740.7
        9324     1.000649     1.890157 -0.0005584085     18741.66
        9325     1.000785     1.889394 -0.0005860405     18743.33
        9326     1.001097     1.888827 -0.000585448     18745.43
        9327     1.001512     1.888268 -0.0005538145     18747.16
        9328     1.001785     1.887816 -0.000606052     18748.01
        9329     1.001851     1.887179 -0.000613763      18748.8
        9330     1.001978     1.886402 -0.0006702755     18750.56
        9331     1.002554     1.885812 -0.000572791     18752.72
        9332     1.002825     1.885134 -0.0006154425     18752.01
        9333     1.003115     1.884888 -0.000531754     18750.34
        9334     1.003517     1.883941 -0.000569823     18750.71
        9335     1.003688     1.883685 -0.000615052     18753.52
        9336     1.003585     1.882855 -0.0005313555     18756.58
        9337     1.003529     1.882428 -0.000663721     18759.14
        9338     1.003693     1.881815 -0.000601777     18760.59
        9339     1.003813     1.881031 -0.0006198435     18759.94
        9340     1.003837     1.880448 -0.000627989     18758.97
        9341      1.00387     1.879948 -0.000598473     18758.82
        9342     1.003885     1.879303 -0.000561009     18759.75
        9343     1.003761     1.878637 -0.000602258     18759.63
        9344     1.003886     1.878204 -0.0006333455     18761.09
        9345      1.00376     1.877539 -0.000587904     18761.46
        9346     1.003481      1.87677 -0.0006212715     18762.61
        9347     1.003022     1.876285 -0.000591968     18763.75
        9348     1.002568     1.875719 -0.0005883055     18764.45
        9349     1.002311     1.875171 -0.0006248545     18763.55
        9350     1.002103     1.874417 -0.0005941695     18759.67
        9351     1.002066     1.873786 -0.0006283945     18757.24
        9352     1.001895     1.873342 -0.0006389295     18758.44
        9353     1.001798     1.872658   -0.0006011     18761.82
        9354     1.001653     1.871861 -0.0006649655     18762.88
        9355     1.001601     1.871381 -0.0006418315     18765.07
        9356     1.001689     1.870682 -0.000597066     18769.37
        9357     1.001813      1.87009 -0.000627831     18773.25
        9358     1.001866     1.869473 -0.0006520445     18775.25
        9359     1.001757      1.86887 -0.0006354495     18774.99
        9360     1.001646     1.868074 -0.000670978     18773.59
        9361     1.001548     1.867549 -0.000646665      18770.5
        9362     1.001782     1.866789 -0.000561384     18768.07
        9363     1.002136     1.866283 -0.0005754685     18768.23
        9364     1.002605     1.865829 -0.0005324205     18770.57
        9365     1.002815     1.865247  -0.00056586     18771.07
        9366     1.002609     1.864659 -0.0006150505     18772.13
        9367     1.002395      1.86402 -0.0005970725     18775.75
        9368     1.001926     1.863368 -0.000550231      18780.9
        9369     1.001407     1.862858 -0.000601449     18783.05
        9370     1.001113     1.862458 -0.0005989735     18783.27
        9371     1.000774     1.861614 -0.0006136645     18784.49
        9372     1.000488     1.860973  -0.00066962     18786.71
        9373     1.000236     1.860404 -0.000610962     18786.68
        9374      1.00039      1.85978 -0.0005895115     18786.64
        9375     1.000379      1.85917 -0.000601471     18785.28
        9376     1.000605     1.858615 -0.000613245     18784.92
        9377     1.000882     1.857998 -0.0005699705     18785.91
        9378     1.001244     1.857327 -0.0006023375     18787.14
        9379     1.001519      1.85689 -0.0005981585     18789.33
        9380     1.001568     1.856205 -0.0005569495     18790.04
        9381     1.001562     1.855605 -0.000620867     18790.95
        9382     1.001442     1.855099 -0.0005987605      18791.5
        9383     1.001414     1.854407 -0.000592065     18792.26
        9384     1.001575      1.85381 -0.0006765075     18793.74
        9385     1.001573     1.853237 -0.000621745     18795.56
        9386      1.00128     1.852393 -0.0006485915        18796
        9387     1.000976      1.85192 -0.000634092      18797.6
        9388     1.000978     1.851216 -0.0005551835     18797.71
        9389     1.001198     1.850701 -0.000597205     18797.34
        9390     1.001326     1.850172 -0.0006070735     18796.89
        9391     1.001186     1.849531 -0.000620908     18796.74
        9392     1.000598     1.848787 -0.000630053     18794.59
        9393     1.000142     1.848217 -0.0006265655     18793.86
        9394     1.000133     1.847652 -0.0006004005     18794.83
        9395     1.000365     1.847025 -0.000621994     18796.21
        9396      1.00009     1.846386 -0.0006001525      18796.5
        9397      1.00003     1.845729 -0.000567362     18797.23
        9398     1.000088     1.845251 -0.0006104115     18798.23
        9399    0.9998888     1.844755 -0.000598089     18799.51
        9400    0.9999785     1.843944 -0.000608944      18800.5
        9401    0.9998231     1.843337 -0.0006620315     18799.76
        9402      0.99978     1.842816 -0.000580317     18799.99
        9403     0.999476     1.842107 -0.0006459535     18801.25
        9404    0.9993976     1.841623 -0.0006400515      18802.5
        9405    0.9996747     1.840753 -0.0005997795     18803.62
        9406    0.9998121     1.840255 -0.0006484195     18805.09
        9407     1.000013     1.839708 -0.000538934        18806
        9408     1.000266     1.839029 -0.0005929515     18804.93
        9409     1.000384     1.838597 -0.0006140775     18805.12
        9410     1.000243     1.837883 -0.000639049     18806.22
        9411     1.000058     1.837252 -0.000616399     18806.63
        9412    0.9998377     1.836473 -0.000588255     18807.58
        9413    0.9995213     1.836132 -0.0006012045     18808.35
        9414    0.9994303      1.83553 -0.0005344215      18810.1
        9415    0.9991717     1.834847 -0.0006435835     18810.45
        9416    0.9988502     1.834335 -0.000691354     18810.88
        9417    0.9987658     1.833557 -0.0006415535     18810.34
        9418     0.998972     1.832765 -0.000646569     18808.35
        9419    0.9992052     1.832281 -0.0006188315     18807.46
        9420    0.9993493     1.831749 -0.000547857     18807.52
        9421    0.9994693     1.831082  -0.00058108     18806.73
        9422    0.9996543     1.830574 -0.0006080455     18806.45
        9423    0.9997555     1.829956 -0.0006203045     18805.01
        9424    0.9997956     1.829317 -0.0006514225     18805.11
        9425    0.9996052     1.828601 -0.000679675     18805.38
        9426    0.9997126     1.827968 -0.0006649705      18806.2
        9427    0.9996361     1.827238 -0.000629101     18806.98
        9428     0.999375     1.826657 -0.0006061025     18806.09
        9429    0.9991294     1.826084 -0.0005583205     18804.67
        9430    0.9986912     1.825544 -0.000613664     18805.18
        9431     0.998379     1.825004 -0.000602173     18806.33
        9432    0.9982871     1.824202 -0.000657513     18807.12
        9433    0.9984069     1.823676 -0.000667875     18807.62
        9434     0.998639     1.822913 -0.000530917     18807.28
        9435    0.9990933     1.822333 -0.0005879575     18807.29
        9436    0.9992797     1.822079 -0.000538894     18807.54
        9437    0.9993091     1.821324 -0.0005381455     18807.62
        9438    0.9991997     1.820758 -0.0006406455     18807.41
        9439    0.9992291      1.82018 -0.0006402125     18807.19
        9440    0.9992252     1.819516 -0.000606767     18807.32
        9441    0.9990956     1.818763 -0.0006096365     18807.11
        9442    0.9991038     1.818331 -0.0006385245     18806.98
        9443    0.9990075     1.817742 -0.000635648     18806.59
        9444    0.9988771     1.816962 -0.0006163645     18805.87
        9445    0.9987013      1.81622  -0.00064329     18805.58
        9446    0.9984685     1.815865 -0.0005981425     18806.62
        9447    0.9983179     1.815169 -0.000538734     18806.97
        9448    0.9984239      1.81457 -0.000619408      18807.9
        9449    0.9983786     1.814065 -0.000560265     18808.08
        9450    0.9982211     1.813388 -0.000551734     18806.42
        9451    0.9982227     1.812928 -0.000565805     18805.84
        9452    0.9981973     1.812363 -0.0005893015     18806.64
        9453    0.9983425     1.811802  -0.00058982     18805.64
        9454    0.9986899     1.811031 -0.000622159     18804.62
        9455     0.999159     1.810568 -0.000607304     18804.57
        9456    0.9997582     1.809874 -0.0005684735     18803.97
        9457     1.000532     1.809373 -0.0006003955     18803.54
        9458     1.000788     1.808757 -0.000545248     18802.14
        9459     1.000758     1.808167 -0.0006003155     18801.24
        9460     1.000836     1.807693 -0.0005690295     18802.45
        9461     1.000835     1.806972 -0.0005844555     18803.77
        9462     1.000777     1.806481 -0.0006126215     18805.72
        9463     1.000207     1.805829 -0.0005444525     18805.93
        9464    0.9994335     1.805242 -0.000557024      18806.1
        9465     0.998906     1.804794 -0.0005101905     18807.15
        9466     0.998345     1.804252  -0.00053465     18808.84
        9467    0.9978862     1.803788 -0.0005635695      18809.1
        9468    0.9975386     1.803104 -0.0005637625     18809.19
        9469    0.9972295      1.80254 -0.000582236     18808.74
        9470    0.9972661     1.801997 -0.0005753885     18809.33
        9471    0.9972384     1.801459 -0.000531714     18808.74
        9472    0.9971459     1.800802 -0.000515064     18807.27
        9473    0.9971364     1.800413 -0.000555618     18805.67
        9474    0.9971799     1.799937 -0.0005388735     18804.59
        9475    0.9971652     1.799237 -0.000591999     18803.72
        9476    0.9971801     1.798647 -0.000627942     18803.06
        9477    0.9972639     1.798045 -0.0005405195     18802.41
        9478    0.9975187     1.797425 -0.0005505505     18802.48
        9479    0.9978746     1.797075 -0.000505778     18802.24
        9480    0.9979133     1.796445 -0.000533833     18802.47
        9481    0.9971665     1.796022 -0.0005853125     18802.36
        9482    0.9966232      1.79529 -0.000526614     18800.42
        9483    0.9965008     1.794733 -0.0005825975     18796.86
        9484    0.9965188     1.794338 -0.0005407685     18788.44
        9485    0.9965911     1.793691 -0.0005707735      18769.7
        9486    0.9965481     1.793127 -0.0006085925     18760.89
        9487    0.9968256      1.79245 -0.000548824     18767.14
        9488    0.9968686     1.791904 -0.0005444025      18776.5
        9489    0.9966353     1.791496 -0.0005117115     18784.91
        9490    0.9964095     1.790949 -0.0005460205     18786.77
        9491    0.9963681     1.790403 -0.000558673     18777.52
        9492    0.9965053      1.78972 -0.0005885805     18760.77
        9493    0.9964262     1.789261 -0.000583466     18758.14
        9494    0.9964557     1.788595 -0.000537973     18765.31
        9495    0.9963891      1.78807 -0.000568745     18776.78
        9496    0.9962797     1.787568 -0.0005392515     18785.79
        9497    0.9961457     1.786986 -0.0005941025     18787.61
        9498    0.9960128     1.786438 -0.000549964     18787.25
        9499    0.9957378     1.785693 -0.000494828     18785.89
        9500    0.9957378     1.785693 -0.000494828     18785.89
