# This file has been produced by extranormal (v 1.0.1 - February 23, 2017)
# O. Roudenko - Synchrotron SOLEIL. Covered by GPL licence.
#Data from HDF File: /nfs/ruche-rock/rock-soleil/com-rock/2022/Projets/20220725_Gilles/op3_cell3_cell4/op3_cell4_pos1_dq1/op3_cell4_pos1_dq1_0022/op3_cell4_pos1_dq1_0022_08338.nxs to op3_cell4_pos1_dq1_0022_08361.nxs
#Time at start=2022-07-27 14:11:45.381
#Time from start (seconds)=64.93106202
#Sample temperature (C)=nan
# Normalization -------------
# pivot spectrum: LNO_pristine_av1100_00001.txt
# E0=8332.88   Eshift=-0.12559188715
# E0_pivot = 8349.6
# pre-edge params: from E0_pivot-240.0 to E0_pivot-50.0
# pre-edge range: [8109.6, 8299.6]
# post-edge params: from E0_pivot+70.0 to E0_pivot+1155.0
# post-edge range: [8419.6, 9500.0]
# I jump at E0_pivot = 0.800690174025
# shifted energy	normalized	reference	ref.derivative	I0
        8060  0.001542672     1.040185 -0.0004744412      14940.6
        8065  0.001506009     1.037812 -0.0004814429      14960.7
        8070 0.0008367056     1.035367 -0.0004591396      14985.4
        8075 -0.0003484454     1.033076 -0.0004578134     15007.93
        8080  0.001006584     1.031002 -0.0004403765      15031.1
        8085  0.001025206     1.028656 -0.0004530615     15049.49
        8090 0.0003625805     1.026559 -0.0004601495     15072.39
        8095 0.0004973189     1.024015 -0.0004528663     15095.69
        8100 9.411581e-05     1.021799 -0.000454217     15118.12
        8105 0.0004374668     1.019598 -0.0004307944     15140.97
        8110 -0.0004500161     1.017475 -0.0004307604     15160.85
        8115 0.0006454745     1.015399 -0.000427981     15179.06
        8120 0.0008544819     1.013184 -0.0004254629     15199.35
        8125 -2.328396e-05     1.011039 -0.0004135344     15221.42
        8130 8.064534e-05     1.008966 -0.0004087634     15242.84
        8135 0.0006521258     1.007128 -0.0004116774     15264.51
        8140  0.001275279     1.005009 -0.0004010072     15283.12
        8145 -0.0001811608     1.002805 -0.0004134691     15304.72
        8150 -7.595847e-05     1.000946 -0.0004206376     15323.29
        8155 -1.644981e-05     0.998859 -0.0004143202     15346.02
        8160 0.0004700438    0.9965962 -0.000425418     15364.92
        8165  0.001511435    0.9945188 -0.0004405288     15392.87
        8170 0.0009455367    0.9924372 -0.0004286356     15410.51
        8175 -0.0001066336    0.9900485 -0.0004154519      15433.6
        8180 0.0006775044    0.9880234 -0.0004162915     15452.75
        8185 -0.001213445    0.9862098 -0.0004084665     15472.63
        8190 -0.001191685    0.9841114 -0.0004116788     15495.46
        8195   -0.0011458    0.9818791 -0.0004268434     15517.41
        8200 -0.0002331805    0.9797899 -0.0004124589      15533.9
        8205 -0.001459487    0.9776729 -0.0004129758      15558.6
        8210 -0.001557666    0.9758622 -0.0004053828     15574.79
        8215 -0.001238415    0.9736196 -0.000408592     15596.02
        8220 -0.001578435    0.9716822 -0.0004140667     15618.07
        8225 -0.0004054518    0.9695011 -0.0003970484     15640.14
        8230 3.798299e-05    0.9675809 -0.0004040309     15661.14
        8235 -0.0008056496    0.9656787 -0.000394408     15677.95
        8240 -0.001107917    0.9636016 -0.0003977138     15699.35
        8245 0.0005927492    0.9616129 -0.0003974624     15721.01
        8250 0.0002410592    0.9596266 -0.0003778911     15740.01
        8255 -0.0001314499    0.9577294 -0.0003657947     15757.97
        8260 0.0002409975    0.9560438 -0.0003442439     15778.32
        8265  0.000277697     0.954297 -0.0003397499     15797.98
        8270  0.001879967    0.9527417 -0.0003378749      15819.7
        8275 0.0004245721    0.9509344 -0.0003373901     15836.89
        8280 0.0001210153    0.9492863 -0.0003305065     15854.81
        8285  0.000454119    0.9475492 -0.0003215574     15867.21
        8290 0.0007188699    0.9461316 -0.0002900303     15880.42
        8295  0.000949527    0.9445033 -0.0002710137     15892.03
        8300  0.004745934    0.9434802 -0.000192237     15819.62
      8300.2  0.004769767    0.9435377 1.516602e-05     15808.46
      8300.4  0.004756985    0.9436196 0.0001092202     15798.33
      8300.6  0.004699899    0.9436239 -5.357653e-05     15789.94
      8300.8  0.004659391    0.9435675 -0.0002342556     15784.23
        8301  0.004604925    0.9434948 -0.0001608256     15780.37
      8301.2  0.004520414    0.9434322 -9.483702e-05     15777.02
      8301.4  0.004520581    0.9434952 -0.0001806864     15775.83
      8301.6  0.004477074    0.9434917 -0.0003518885     15775.65
      8301.8  0.004447566    0.9433502 -0.0005978511     15775.69
        8302  0.004403087    0.9431507 -0.0006867689     15775.53
      8302.2  0.004351777     0.943017 -0.0006330378     15775.09
      8302.4  0.004327253    0.9429423 -0.0005393596     15774.49
      8302.6  0.004251116    0.9428438 -0.0005316041     15772.96
      8302.8  0.004249942    0.9427192 -0.0005975237     15770.67
        8303  0.004371265    0.9425917 -0.0005506522     15767.83
      8303.2  0.004493274    0.9424642 -0.0003452424     15763.72
      8303.4  0.004552262    0.9424033 -4.739297e-05     15758.09
      8303.6  0.004615099     0.942443 0.0003881688     15750.68
      8303.8   0.00470768    0.9425538 0.0004688536     15741.05
        8304  0.004811543    0.9427748 0.0003031833     15729.07
      8304.2  0.005003162    0.9427784 2.243076e-05     15713.22
      8304.4  0.005373343    0.9426855 -0.0005072447     15692.64
      8304.6  0.005829528    0.9425717 -0.0007722149     15665.42
      8304.8   0.00637078     0.942369 -0.0008265959     15629.31
        8305  0.007065846    0.9421606 -0.0008193484     15581.97
      8305.2  0.007735441    0.9420242 -0.0005773356     15521.66
      8305.4  0.008388554    0.9419162 -0.0003166326     15449.88
      8305.6  0.008859196    0.9419071 -8.993971e-05     15368.95
      8305.8  0.008941453    0.9419073 0.0001697898     15287.21
        8306  0.008686394    0.9419523 0.0004078434     15212.88
      8306.2  0.008162597    0.9420521 0.0006488229     15153.17
      8306.4  0.007401437    0.9422334 0.0008850424     15112.54
      8306.6  0.006561747    0.9424264 0.0008654027     15093.67
      8306.8   0.00564322    0.9426603 0.0006091282     15097.51
        8307  0.004961732    0.9427444 0.0003937056     15122.97
      8307.2  0.004433406    0.9427207 0.0001762778     15162.53
      8307.4  0.004051858    0.9427413 0.0002373687     15210.27
      8307.6  0.003771222    0.9428013 0.0004109624     15263.07
      8307.8  0.003542303    0.9429343 0.0005805252     15319.75
        8308  0.003307247    0.9430495 0.0005913458     15378.14
      8308.2  0.003071117    0.9432057 0.0004694754     15437.11
      8308.4  0.002824059    0.9432744 0.0003522904     15496.61
      8308.6  0.002627486    0.9433098 -2.993795e-05     15557.71
      8308.8  0.002623452    0.9433313 -0.0003779231     15618.85
        8309  0.002780708    0.9431818 -0.0006805358     15675.86
      8309.2  0.003051213    0.9429721 -0.0009158348     15724.25
      8309.4   0.00349404    0.9427654 -0.0008298794     15762.72
      8309.6  0.004065373    0.9425986 -0.0006367849     15789.77
      8309.8  0.004586219    0.9425179  -0.00044215     15802.95
        8310   0.00495734    0.9424627 -0.0003037619     15804.74
      8310.2  0.005193269    0.9424117 -0.0001828833     15799.83
      8310.4  0.005420886    0.9423556 -5.167961e-05     15793.38
      8310.6  0.005532416    0.9423716 1.072535e-05     15788.31
      8310.8  0.005406144    0.9424213 7.622562e-06     15785.44
        8311  0.005140121    0.9424203 -9.460825e-05     15786.95
      8311.2  0.005056046    0.9423617 -0.0002990397     15793.59
      8311.4  0.005307762    0.9422959 -0.0003768503     15800.45
      8311.6  0.005819941    0.9421821 -0.0003023797     15802.61
      8311.8  0.006247139    0.9421188 -0.0001503799     15796.21
        8312  0.006434223    0.9421198  8.82214e-05     15783.72
      8312.2  0.006518334    0.9421756 0.0004093753     15769.54
      8312.4  0.006670578    0.9422527 0.0005746945     15756.08
      8312.6  0.006658793    0.9424463  0.000541337     15744.28
      8312.8  0.006624904    0.9425796 0.0002955641     15735.66
        8313  0.006850486    0.9426087 -0.0001518751     15729.26
      8313.2  0.007311278    0.9424891 -0.0005716384     15717.84
      8313.4  0.007942104    0.9423248 -0.000862883     15694.69
      8313.6  0.008807291    0.9421223 -0.000831624     15657.91
      8313.8  0.009674545    0.9419184 -0.0006332921     15602.37
        8314   0.01050519    0.9418238 -0.0004383986     15528.56
      8314.2   0.01109492    0.9418182 0.0001195002     15443.73
      8314.4   0.01140458    0.9417715 0.0006088857      15356.5
      8314.6   0.01124155     0.942014 0.0009129352     15277.52
      8314.8   0.01068795    0.9423109  0.001302175     15214.96
        8315   0.01004508    0.9425485  0.001359679     15173.37
      8315.2   0.00924516    0.9428133  0.001281653     15156.09
      8315.4  0.008457497    0.9431017  0.001253757     15164.25
      8315.6  0.007939268    0.9433362   0.00110904     15191.95
      8315.8  0.007615098    0.9435515 0.0009373248     15231.71
        8316  0.007415899    0.9437005  0.000761771      15276.8
      8316.2  0.007302174    0.9438516 0.0006135317     15322.42
      8316.4  0.007231174    0.9439457 0.0006331711     15366.42
      8316.6  0.007141826    0.9440423 0.0005913334     15408.85
      8316.8  0.007105579     0.944207 0.0005960076     15450.79
        8317  0.007031532    0.9443246 0.0005879063     15492.35
      8317.2  0.006941791    0.9444225 0.0003572283     15533.84
      8317.4  0.006838493    0.9445127 0.0002536051     15574.61
      8317.6  0.006801457    0.9444928 4.245408e-05     15615.23
      8317.8  0.006730292    0.9445275 -6.119822e-05     15655.16
        8318   0.00681776    0.9444564 4.004834e-05     15693.89
      8318.2  0.006976665    0.9444637 0.0001010279     15730.04
      8318.4   0.00719219    0.9445249 0.0002681038     15762.53
      8318.6  0.007262411    0.9446083 0.0003373199     15789.49
      8318.8  0.007376094    0.9446709 0.0003688743     15812.36
        8319  0.007490045    0.9447336 0.0002861306     15831.78
      8319.2  0.007498583      0.94482 0.0003117623     15847.37
      8319.4  0.007645735    0.9448372 0.0005063815      15860.9
      8319.6  0.007791185    0.9449203   0.00063956     15872.65
      8319.8  0.007755329    0.9451387 0.0009251662     15882.42
        8320  0.007744631    0.9453316  0.001075572     15891.39
      8320.2  0.007818733    0.9455774  0.000962199     15899.72
      8320.4  0.007893981    0.9457808  0.000864325     15907.04
      8320.6  0.007963868    0.9459084 0.0007982946     15913.57
      8320.8  0.007974803    0.9460231 0.0008518571      15919.2
        8321  0.007976431     0.946216   0.00104179      15924.4
      8321.2  0.008020356    0.9464623  0.001104361     15929.64
      8321.4  0.008072579    0.9467419 0.0009980082     15934.58
      8321.6  0.008188077    0.9469066  0.001005298     15939.67
      8321.8  0.008307318    0.9470144  0.001017179     15944.69
        8322  0.008332527    0.9472665  0.001201147     15949.48
      8322.2  0.008456979    0.9475556  0.001497378     15954.69
      8322.4   0.00863108    0.9478675  0.001466425     15960.05
      8322.6  0.008743976    0.9482123  0.001524455     15965.55
      8322.8  0.008868347    0.9484396  0.001720338     15971.44
        8323   0.00896183    0.9487752   0.00179773     15978.12
      8323.2   0.00901518    0.9492437  0.001896216     15985.18
      8323.4  0.009087543    0.9496505  0.001912699     15992.48
      8323.6  0.009212943    0.9499566  0.001791112     16000.04
      8323.8  0.009364433    0.9503053  0.001838266     16007.79
        8324  0.009486045    0.9506766  0.002029024     16014.89
      8324.2  0.009633168    0.9511211  0.002107209     16021.41
      8324.4  0.009777502    0.9515798  0.002093641     16027.19
      8324.6    0.0098795    0.9519911  0.002034171     16031.49
      8324.8   0.01002326    0.9523515  0.002045377      16035.1
        8325     0.010203    0.9527484  0.002205623     16038.13
      8325.2   0.01041788    0.9532161  0.002476168     16040.74
      8325.4   0.01057731    0.9537556   0.00275177     16042.51
      8325.6   0.01076469    0.9543325  0.003101083     16044.02
      8325.8   0.01102026    0.9549499  0.003401386     16045.48
        8326   0.01127439     0.955697  0.003655458     16046.89
      8326.2   0.01156389    0.9564767   0.00385544     16048.12
      8326.4   0.01184591    0.9572568  0.004052419     16049.16
      8326.6   0.01216808    0.9580342  0.004356633     16050.48
      8326.8   0.01249007    0.9589389  0.004756974     16051.76
        8327   0.01279604     0.959962  0.005189928     16052.66
      8327.2   0.01305899    0.9610624  0.005471632     16053.38
      8327.4   0.01336568    0.9621862  0.005659143     16054.75
      8327.6   0.01355767    0.9633162  0.005971121      16055.4
      8327.8   0.01379311    0.9644893  0.006380101     16056.18
        8328   0.01404717    0.9658393  0.006748037     16057.35
      8328.2   0.01428834    0.9672902  0.007197621     16058.51
      8328.4   0.01456905    0.9687147  0.007672949     16059.57
      8328.6   0.01480201    0.9702474  0.008295659      16060.3
      8328.8   0.01499062    0.9719777  0.009199996     16061.22
        8329   0.01518916    0.9739268   0.01024195     16062.18
      8329.2   0.01543656    0.9760747   0.01143411     16063.15
      8329.4   0.01567234     0.978441   0.01285483     16063.84
      8329.6    0.0159164     0.981125   0.01456677     16064.75
      8329.8   0.01623455    0.9842106   0.01671184      16066.1
        8330   0.01655558    0.9877281   0.01932144     16067.03
      8330.2   0.01693948    0.9918105   0.02260083     16067.82
      8330.4   0.01735103    0.9965821   0.02667604     16068.67
      8330.6    0.0177654     1.002291   0.03149098     16069.27
      8330.8   0.01819929     1.009069   0.03776236     16069.99
        8331   0.01874843     1.017003    0.0455869     16070.51
      8331.2   0.01944315     1.026792   0.05522357     16071.23
      8331.4   0.02025148     1.038761   0.06681843     16072.25
      8331.6   0.02120593     1.053248   0.07943655     16072.95
      8331.8   0.02230424     1.070458   0.09295751      16073.7
        8332   0.02350841     1.090341     0.106548     16074.05
      8332.2   0.02484687     1.113127    0.1191159     16073.93
      8332.4   0.02645493     1.138486    0.1300977      16074.1
      8332.6   0.02835207     1.165751    0.1384211     16074.24
      8332.8    0.0305476     1.194419    0.1441573     16074.38
        8333   0.03299346     1.223864    0.1475455     16074.44
      8333.2     0.035645     1.253812    0.1482194     16074.24
      8333.4   0.03842705     1.283787     0.146273      16073.8
      8333.6   0.04129195     1.312995     0.142719     16073.54
      8333.8   0.04407117     1.340882    0.1384041     16073.34
        8334   0.04669375     1.367987    0.1332751     16072.91
      8334.2   0.04921378      1.39451    0.1273074     16072.86
      8334.4    0.0512766     1.419615    0.1200902     16072.62
      8334.6   0.05281494     1.442728    0.1113631     16072.27
      8334.8   0.05390078     1.464059    0.1024684     16072.55
        8335   0.05439323     1.483601    0.0942315     16072.84
      8335.2   0.05442402      1.50159    0.0862638     16072.94
      8335.4    0.0541459     1.518113   0.07808111      16072.9
      8335.6    0.0537097      1.53307   0.07003893     16073.06
      8335.8   0.05335033     1.546066   0.06257588     16073.45
        8336   0.05304974     1.557621     0.056185     16073.86
      8336.2   0.05291713     1.568174   0.05139252     16074.56
      8336.4    0.0529493     1.578018   0.04766341     16075.16
      8336.6   0.05325279      1.58718   0.04469924     16076.19
      8336.8    0.0537872     1.595752   0.04232315     16077.44
        8337   0.05442717     1.603933   0.04106177     16078.43
      8337.2    0.0553281     1.611877   0.04119656     16079.74
      8337.4   0.05639218     1.620029   0.04260406     16080.95
      8337.6   0.05756337     1.628709   0.04506197     16081.84
      8337.8   0.05891936     1.638017   0.04802519     16083.07
        8338   0.06050039     1.647927   0.05154551     16084.54
      8338.2   0.06225377     1.658449   0.05513732     16085.69
      8338.4   0.06423166     1.669945    0.0583694      16086.8
      8338.6   0.06640329     1.682126    0.0611828     16087.89
      8338.8   0.06876485     1.694622   0.06303252        16089
        8339   0.07130868     1.707396     0.064151     16090.23
      8339.2   0.07402078     1.720371   0.06485794        16091
      8339.4   0.07703104     1.733447   0.06446292     16091.85
      8339.6   0.08035171     1.746508   0.06304626     16092.38
      8339.8   0.08391938     1.758966   0.06125235     16092.99
        8340   0.08774006     1.770808   0.05914337     16093.35
      8340.2   0.09189187     1.782449   0.05785654     16093.43
      8340.4    0.0965295     1.793823   0.05740659     16093.63
      8340.6    0.1018905     1.805251   0.05682006     16094.33
      8340.8    0.1078176     1.816734   0.05672943     16094.99
        8341    0.1140721     1.827905   0.05730378     16094.95
      8341.2    0.1212061     1.839207   0.05883444     16095.64
      8341.4    0.1293583     1.851094   0.06192212     16096.42
      8341.6    0.1385955     1.863801   0.06553372     16097.14
      8341.8    0.1491885     1.877443   0.06927406     16097.88
        8342    0.1608711     1.891634   0.07294126     16098.35
      8342.2    0.1736582     1.906513    0.0771928     16099.06
      8342.4    0.1875397     1.922154   0.08239001     16099.89
      8342.6    0.2031077     1.939197   0.08810511     16100.73
      8342.8    0.2201314     1.957546   0.09382635     16101.75
        8343    0.2381898     1.976998   0.09884644     16102.66
      8343.2    0.2567893     1.997215    0.1032501     16103.45
      8343.4    0.2759019     2.018274    0.1074331     16104.13
      8343.6    0.2954748     2.040146    0.1113221     16104.17
      8343.8    0.3151672     2.062944    0.1149135     16104.22
        8344    0.3347849     2.086273     0.118017     16104.67
      8344.2    0.3543511     2.110205    0.1210942      16105.1
      8344.4    0.3738283     2.134559    0.1238571     16105.67
      8344.6    0.3934301     2.159819    0.1258273     16106.22
      8344.8    0.4129509     2.185359    0.1275788     16106.35
        8345    0.4323014     2.210867    0.1291001     16106.73
      8345.2    0.4516192     2.236622    0.1310717     16106.72
      8345.4    0.4716254     2.263099    0.1330277      16107.5
      8345.6    0.4923626     2.290216    0.1342024     16108.42
      8345.8    0.5134841     2.317289    0.1342655     16110.12
        8346     0.534869     2.343984    0.1330137     16111.55
      8346.2    0.5566135     2.370512    0.1315612     16112.65
      8346.4    0.5785598     2.396627    0.1302658     16113.73
      8346.6    0.6013331     2.422538    0.1286125     16114.78
      8346.8    0.6247338     2.448197    0.1255841     16115.55
        8347     0.648452     2.473402    0.1209044     16116.46
      8347.2    0.6722369     2.497094    0.1153289     16117.62
      8347.4    0.6960029     2.519262    0.1088046     16117.76
      8347.6    0.7202737      2.54046    0.1022236      16117.8
      8347.8    0.7453139     2.560446   0.09494773     16118.44
        8348    0.7706616     2.578873   0.08684603     16118.95
      8348.2    0.7959669      2.59522   0.07708521     16119.13
      8348.4    0.8212893     2.609937   0.06724021     16119.58
      8348.6    0.8465163     2.622114   0.05827945     16119.92
      8348.8     0.871958     2.632665   0.04914232     16119.46
        8349    0.8980211     2.641843    0.0414576     16119.23
      8349.2    0.9243617     2.649251   0.03397461     16118.61
      8349.4    0.9510708      2.65528    0.0260247     16118.34
      8349.6    0.9783433     2.659845   0.01967098     16118.16
      8349.8     1.006299     2.662663   0.01399739     16117.84
        8350     1.035094     2.664987  0.008873732      16117.6
      8350.2     1.064773     2.666478  0.005256053     16117.87
      8350.4      1.09512     2.666944  0.001074208     16118.27
      8350.6     1.126178     2.666868 -0.002788143     16118.21
      8350.8     1.158145     2.665847 -0.005739827     16118.66
        8351     1.190874     2.664247  -0.00899203     16119.34
      8351.2      1.22381     2.662352  -0.01089092     16119.96
      8351.4     1.256478     2.659674   -0.0128512     16120.32
      8351.6     1.288857     2.657134  -0.01449744     16120.64
      8351.8     1.321567     2.653966  -0.01480201     16120.98
        8352     1.354347     2.650754  -0.01582126     16121.09
      8352.2     1.386136     2.647833    -0.015358     16121.16
      8352.4     1.416782     2.644477  -0.01452374     16121.72
      8352.6     1.445584      2.64168  -0.01402603     16121.61
      8352.8     1.473078     2.639135  -0.01207088     16121.29
        8353     1.499377     2.636612  -0.01033728     16121.61
      8353.2     1.523412      2.63482 -0.007743225     16121.92
      8353.4     1.543889      2.63341  -0.00390231     16122.42
      8353.6     1.560575      2.63294 -0.000356984     16122.91
      8353.8     1.573189      2.63349  0.003792438     16122.93
        8354     1.581254     2.634535  0.009394486     16123.35
      8354.2     1.584201     2.636444   0.01427124     16124.03
      8354.4     1.581911     2.640456   0.01994559     16124.48
      8354.6     1.574388     2.644907   0.02538948     16125.17
      8354.8     1.561709     2.650491   0.02914039     16125.93
        8355     1.544671     2.656756   0.03253621     16126.46
      8355.2     1.523905     2.663768   0.03473905      16127.4
      8355.4      1.49953     2.670936   0.03668162     16128.21
      8355.6     1.472686     2.678282   0.03761716     16129.23
      8355.8     1.444127     2.686101   0.03890532     16130.81
        8356     1.414018     2.693862   0.04021059     16131.83
      8356.2     1.383379      2.70206   0.03999308     16132.36
      8356.4     1.352923     2.710451    0.0392303     16133.05
      8356.6     1.323238     2.718095    0.0370755     16133.99
      8356.8     1.294266     2.725246   0.03375823     16134.76
        8357     1.266249     2.731721    0.0306873     16135.49
      8357.2     1.239593     2.737458   0.02671234     16136.06
      8357.4     1.215244     2.742645   0.02182662     16136.91
      8357.6     1.193334     2.746616   0.01634451     16137.95
      8357.8     1.173329     2.749182   0.01042628     16139.22
        8358     1.154869     2.750533  0.005142322     16139.79
      8358.2     1.138133     2.750986  0.000761345     16140.32
      8358.4     1.123253      2.75073 -0.002852518     16141.15
      8358.6     1.110485     2.749791 -0.006673606     16142.25
      8358.8     1.099425     2.748251  -0.01045366     16143.17
        8359     1.089582     2.745647  -0.01389266     16143.58
      8359.2     1.081016     2.742367  -0.01683198     16144.42
      8359.4     1.073735     2.738677  -0.01874641      16145.3
      8359.6     1.067545     2.734786  -0.02018253     16146.12
      8359.8     1.062315      2.73065  -0.02126773     16147.38
        8360     1.057851     2.726221  -0.02156785     16147.79
      8360.2     1.053978     2.721663  -0.02217296     16148.34
      8360.4     1.050504     2.717531   -0.0219537     16148.81
      8360.6     1.047442     2.712912  -0.02069433     16149.33
      8360.8     1.044765     2.708658  -0.02024055     16150.13
        8361     1.042251     2.705107  -0.01897524     16150.92
      8361.2     1.039951     2.701339  -0.01810053     16152.11
      8361.4     1.037809     2.697732  -0.01809486     16153.04
      8361.6     1.035765     2.694178   -0.0176951     16153.77
      8361.8     1.033747     2.690631  -0.01704595      16154.4
        8362     1.031701     2.687183  -0.01643586      16155.2
      8362.2     1.029611     2.684095  -0.01652809     16156.34
      8362.4     1.027433     2.681029  -0.01689779     16157.38
      8362.6     1.025214     2.677409  -0.01796295     16158.28
      8362.8     1.023037     2.673665   -0.0191099     16159.19
        8363     1.020848     2.669724  -0.01995679     16160.23
      8363.2     1.018739     2.665741  -0.02091382     16161.44
      8363.4      1.01657     2.661443  -0.02209559     16162.47
      8363.6     1.014437     2.656933  -0.02326356     16163.26
      8363.8     1.012405     2.652048  -0.02365258     16164.28
        8364     1.010547      2.64713  -0.02353162     16165.33
      8364.2     1.008936     2.642521  -0.02386873     16166.51
      8364.4     1.007453     2.638108  -0.02379053     16167.48
      8364.6     1.006252     2.632953  -0.02364604     16168.38
      8364.8     1.005488     2.628098  -0.02432965     16169.45
        8365      1.00504     2.623604  -0.02330464     16170.52
      8365.2     1.004865     2.618644  -0.02229466     16171.49
      8365.4     1.005103     2.614309  -0.02204367     16172.44
      8365.6     1.005813     2.610262  -0.01974749     16173.49
      8365.8     1.006865      2.60597  -0.01771207     16174.49
        8366     1.008267     2.602846  -0.01625851     16175.54
      8366.2     1.010019      2.60014  -0.01368722     16176.37
      8366.4     1.012094     2.597255  -0.01262579     16177.31
      8366.6     1.014507      2.59502  -0.01189894     16178.83
      8366.8     1.017058     2.592746  -0.01040684      16179.7
        8367     1.019818     2.590621 -0.009876603     16180.77
      8367.2     1.022773      2.58893 -0.009080209     16182.11
      8367.4     1.025867     2.587118 -0.008215614     16183.02
      8367.6     1.028982     2.585482 -0.007339476     16184.06
      8367.8     1.031996     2.584048 -0.006380619      16184.5
        8368      1.03492     2.583058 -0.005893935     16185.92
      8368.2     1.037695     2.582014  -0.00557649     16187.44
      8368.4     1.040366     2.580767 -0.005482357     16189.04
      8368.6     1.042684     2.579587 -0.005032039     16190.41
      8368.8     1.044477     2.578672 -0.003680013     16191.29
        8369     1.045901     2.577988 -0.002835821     16191.96
      8369.2     1.046965     2.577823  -0.00229381     16193.05
      8369.4     1.047413     2.577318 -0.001511591     16193.92
      8369.6     1.047365     2.576837 -0.001123682     16194.69
      8369.8     1.046957     2.576779 -0.0006803828      16195.5
        8370     1.045931     2.576924 -0.0001581009     16195.91
      8370.2     1.044438     2.576774 0.0008042061      16196.6
      8370.4     1.042563     2.576711  0.001793768     16197.38
      8370.6     1.040162     2.577422  0.002876894     16198.04
      8370.8     1.037393     2.578359  0.004652358     16199.03
        8371      1.03437     2.579075  0.005838085     16200.03
      8371.2     1.031074     2.580433  0.007074102     16200.75
      8371.4     1.027515     2.582093   0.00857338     16201.54
      8371.6     1.023739     2.584018  0.009778961     16202.29
      8371.8     1.019768     2.585934   0.01114578     16203.15
        8372     1.015587     2.588256   0.01298159     16203.76
      8372.2      1.01133      2.59101   0.01444489      16204.4
      8372.4     1.006957     2.594403   0.01552357     16204.94
      8372.6     1.002512      2.59749   0.01662027     16205.68
      8372.8    0.9981951     2.600675   0.01710623     16206.87
        8373    0.9937847     2.604306   0.01801492     16207.91
      8373.2    0.9891726     2.608088   0.01900288     16208.36
      8373.4    0.9844664     2.611902   0.01901197     16208.74
      8373.6    0.9796418     2.615877   0.01939784     16209.31
      8373.8    0.9747711     2.619515   0.02038913     16209.95
        8374    0.9698882     2.623606   0.02108927     16210.52
      8374.2     0.965012     2.628213   0.02278061     16211.28
      8374.4    0.9602059     2.632748   0.02407473     16212.43
      8374.6    0.9550755      2.63774   0.02480421     16212.74
      8374.8    0.9497617     2.642866   0.02554916     16213.22
        8375    0.9444732     2.648057   0.02530136     16214.16
      8375.2    0.9393219     2.653188   0.02534853     16214.62
      8375.4    0.9341991     2.657981   0.02615374     16215.28
      8375.6    0.9290304     2.663145   0.02674189     16215.72
      8375.8    0.9237906      2.66898   0.02808071     16216.28
        8376    0.9184746     2.674581   0.02936477      16216.7
      8376.2    0.9133084     2.680445   0.02931206     16217.38
      8376.4    0.9082275     2.686637   0.02945506      16217.8
      8376.6    0.9033552     2.692429   0.02914153     16218.58
      8376.8     0.898637     2.698145   0.02982101     16219.65
        8377    0.8939712     2.703759   0.02990347     16220.73
      8377.2    0.8893286     2.710494   0.02985224     16221.42
      8377.4    0.8849511     2.716352   0.03055651     16222.55
      8377.6    0.8807555     2.722027    0.0301708     16223.76
      8377.8    0.8767181     2.728204   0.03056469     16224.78
        8378     0.872876      2.73463   0.03046304     16225.72
      8378.2    0.8691713     2.740804    0.0301369     16226.55
      8378.4    0.8655745     2.746398   0.02951943     16227.06
      8378.6    0.8621397     2.752313    0.0288855     16227.26
      8378.8    0.8587723     2.758246   0.02842573     16227.65
        8379    0.8554288     2.763912   0.02798331     16227.98
      8379.2    0.8522831     2.769138   0.02737225     16228.94
      8379.4    0.8493358       2.7747   0.02614359     16229.76
      8379.6    0.8465371     2.780144   0.02611687     16230.76
      8379.8    0.8437865     2.784827   0.02527259     16231.59
        8380    0.8411571     2.790032   0.02360842     16232.77
      8380.2    0.8386233     2.794918   0.02240647      16233.8
      8380.4    0.8361521      2.79903   0.02043007     16234.44
      8380.6    0.8338355     2.802752   0.01924303     16235.57
      8380.8     0.831632     2.806376   0.01793189     16236.87
        8381    0.8294818     2.810313   0.01693749     16237.74
      8381.2    0.8273944     2.813376   0.01556381     16238.01
      8381.4    0.8254504     2.816302   0.01267248     16238.62
      8381.6    0.8236306     2.818827   0.01064904     16239.39
      8381.8    0.8219444     2.820451  0.008289411        16240
        8382    0.8204338     2.821895  0.005738741     16240.57
      8382.2    0.8189694     2.822934  0.003968975     16241.17
      8382.4    0.8176046     2.823418   0.00239036     16242.22
      8382.6    0.8163877     2.823626 0.0004944479     16242.84
      8382.8    0.8153668     2.823807 -0.001516014     16243.75
        8383     0.814568     2.823329 -0.003367278     16245.16
      8383.2    0.8137526     2.822205 -0.005536851     16246.14
      8383.4     0.812974     2.820932 -0.007162026     16246.78
      8383.6    0.8123335     2.819378 -0.008617222     16247.16
      8383.8    0.8119018       2.8176  -0.01054183     16248.29
        8384    0.8115944     2.815311  -0.01249016     16249.22
      8384.2    0.8114145     2.812498  -0.01448457        16250
      8384.4    0.8113919     2.809386  -0.01554826     16250.69
      8384.6    0.8116308     2.806012  -0.01599361     16251.41
      8384.8    0.8120486     2.802873  -0.01723202     16252.22
        8385    0.8125092     2.799704  -0.01829779     16252.97
      8385.2    0.8130517       2.7956  -0.02047765     16253.53
      8385.4    0.8136604     2.791374  -0.02194707     16254.04
      8385.6    0.8143715      2.78649  -0.02299252     16254.56
      8385.8    0.8152464     2.782146  -0.02462737     16255.15
        8386    0.8162834     2.777206  -0.02598061     16255.58
      8386.2    0.8174036     2.771672  -0.02716853     16256.01
      8386.4    0.8184904     2.765706  -0.02784494     16256.44
      8386.6    0.8196428     2.760411  -0.02801248     16257.07
      8386.8    0.8208663      2.75493  -0.02818022     16257.63
        8387     0.822175     2.749262  -0.02946792      16258.7
      8387.2    0.8234954     2.743162  -0.03086455     16259.62
      8387.4    0.8248951     2.736837  -0.03139789      16260.2
      8387.6    0.8263754     2.730239  -0.03136137      16260.7
      8387.8    0.8278701     2.724144  -0.03097393     16261.44
        8388    0.8293883     2.718073  -0.03065099     16262.43
      8388.2    0.8308903     2.712058  -0.03081523     16263.47
      8388.4    0.8324455     2.705718  -0.03055867     16264.22
      8388.6    0.8340899     2.699491  -0.03048843      16265.4
      8388.8    0.8357458     2.693626  -0.02963153      16266.5
        8389    0.8373402     2.687667  -0.02847794     16266.91
      8389.2    0.8389671     2.682013  -0.02762266     16267.73
      8389.4    0.8405756     2.676709  -0.02682526     16268.18
      8389.6    0.8423115     2.671528  -0.02617259     16268.58
      8389.8     0.843969     2.666207  -0.02593336     16269.13
        8390    0.8456587     2.661074  -0.02622189     16269.48
      8390.2    0.8474132     2.655962  -0.02554468     16269.98
      8390.4    0.8491797      2.65055  -0.02467439     16270.05
      8390.6    0.8509313     2.645771  -0.02398003     16270.22
      8390.8    0.8527315     2.641335  -0.02226284     16270.93
        8391    0.8545088     2.636778  -0.02156837     16271.48
      8391.2    0.8563511      2.63274  -0.02170718     16271.67
      8391.4    0.8583584     2.628516  -0.02120052     16272.14
      8391.6    0.8605304     2.623969  -0.02116151     16273.13
      8391.8    0.8625946     2.619818  -0.02085734     16274.32
        8392    0.8645795     2.615811  -0.01993264     16274.87
      8392.2     0.866664      2.61183  -0.01918245     16275.67
      8392.4    0.8688319     2.608023  -0.01868539     16276.17
      8392.6    0.8710931     2.604472  -0.01758263      16276.4
      8392.8    0.8734712     2.600862  -0.01673506     16277.16
        8393    0.8758055     2.597764  -0.01623606      16277.8
      8393.2    0.8781502     2.594635  -0.01506359     16278.76
      8393.4    0.8805971     2.591483   -0.0147242     16279.67
      8393.6    0.8832905     2.588811  -0.01408265     16280.63
      8393.8    0.8861055     2.585985  -0.01298113     16281.76
        8394    0.8889171     2.583369  -0.01216619     16282.42
      8394.2    0.8917487     2.581098  -0.01121132     16282.93
      8394.4    0.8946426     2.579078  -0.01051705     16283.86
      8394.6    0.8976054     2.577016 -0.009594754     16284.49
      8394.8    0.9006813     2.574955 -0.008531111     16285.08
        8395    0.9038781     2.573422 -0.007370501     16285.77
      8395.2    0.9070382     2.572254 -0.005809345     16285.84
      8395.4    0.9103075     2.571119 -0.004981463      16286.3
      8395.6    0.9136025     2.570308 -0.004648739      16286.5
      8395.8    0.9168788     2.569437  -0.00383688     16287.21
        8396    0.9201924     2.568535  -0.00317172     16288.44
      8396.2    0.9236265      2.56805 -0.002645319     16290.06
      8396.4    0.9270117      2.56777 -0.001475677     16290.81
      8396.6    0.9305238     2.567321 -0.001536472     16291.81
      8396.8    0.9341077     2.567354 -0.001039898     16293.31
        8397    0.9375787     2.566821 7.758101e-05     16294.12
      8397.2    0.9410728     2.566939 0.0003774649     16294.46
      8397.4    0.9446206     2.567383 0.0007818259     16294.94
      8397.6    0.9481811     2.567656   0.00036718     16295.58
      8397.8    0.9518376     2.567446 -0.000126573     16296.43
        8398    0.9553768     2.567232 -0.0004267018     16296.79
      8398.2    0.9586786     2.567282 -0.0004219829     16296.66
      8398.4    0.9619467     2.567315 -0.0005656429     16297.11
      8398.6    0.9652724     2.567109 -0.0009136275     16297.67
      8398.8    0.9685249      2.56678  -0.00145816     16297.38
        8399    0.9717079     2.566551 -0.001359671     16297.64
      8399.2    0.9748698     2.566148 -0.001216639     16298.71
      8399.4    0.9779538     2.566021  -0.00132565     16299.59
      8399.6    0.9809002     2.565806 -0.002033705     16300.55
      8399.8    0.9838201      2.56549 -0.002769525     16301.32
        8400    0.9866417     2.564975 -0.002995338     16301.88
        8401     1.000368     2.561669 -0.003126602     16304.75
        8402     1.013835     2.558507 -0.002770241     16308.42
        8403     1.027513     2.555324 -0.001652737     16310.82
        8404     1.042419     2.553894 -9.039834e-06     16315.18
        8405     1.057838     2.555058  0.002480979     16319.12
        8406     1.072678     2.558471  0.004632124     16323.86
        8407     1.085583     2.565248  0.006116432     16327.95
        8408     1.094978     2.572423  0.006736008      16332.5
        8409     1.100737     2.579524  0.006563687     16337.54
        8410     1.103444     2.585415  0.006448203      16342.9
        8411     1.102806     2.591503  0.006196812     16345.63
        8412     1.099821     2.598216  0.006556523     16348.85
        8413     1.094608     2.604311  0.007504946     16353.49
        8414     1.088223     2.611641  0.008676243     16358.54
        8415     1.081619     2.621522    0.0100934     16362.84
        8416     1.074822     2.632921   0.01118968     16366.88
        8417     1.067955     2.644684    0.0113686      16370.7
        8418     1.061127       2.6564   0.01102274     16376.58
        8419     1.054017     2.666997   0.01063191     16381.31
        8420     1.046696     2.677012   0.01052757     16383.92
        8421     1.039315     2.687212   0.01089491     16388.28
        8422     1.031571      2.69851   0.01161898     16391.64
        8423     1.024092     2.710576   0.01258566     16394.69
        8424     1.017326     2.723488   0.01332733      16396.8
        8425     1.011519     2.737555   0.01387415     16399.02
        8426      1.00641     2.751819   0.01417299     16401.52
        8427     1.001785     2.766073   0.01362385     16403.83
        8428    0.9978139      2.78018   0.01227824     16407.25
        8429    0.9939387      2.79205   0.01026425     16410.64
        8430    0.9909086     2.800932  0.007289121     16414.12
        8431    0.9883855      2.80713  0.003814884     16419.72
        8432     0.986331     2.809336 0.0001621298     16423.86
        8433    0.9852411      2.80731 -0.003743031     16428.22
        8434    0.9850593     2.801581 -0.007300495     16432.09
        8435    0.9858181     2.792158  -0.01049758     16435.73
        8436    0.9869574     2.780134    -0.012998     16439.42
        8437    0.9882026     2.765319  -0.01492799     16441.96
        8438    0.9895695     2.749589  -0.01625337     16445.47
        8439    0.9906759     2.732446  -0.01698102     16449.86
        8440      0.99135     2.715121  -0.01733238     16455.63
        8441    0.9916399     2.697395  -0.01731452     16459.77
        8442    0.9916663     2.680259  -0.01694446      16463.4
        8443    0.9913853     2.663188  -0.01593913     16466.66
        8444    0.9910858     2.647343   -0.0146731     16471.09
        8445    0.9904776     2.633639  -0.01319455     16473.46
        8446    0.9901072     2.621567  -0.01175752     16476.96
        8447     0.989599      2.61041  -0.01103481     16479.69
        8448    0.9890951     2.600313  -0.01116467     16482.99
        8449     0.988623     2.589499  -0.01192809     16487.93
        8450    0.9884848     2.576908  -0.01326251        16493
        8451    0.9882376     2.562697  -0.01461164     16496.85
        8452    0.9879266     2.547263  -0.01561676     16500.92
        8453    0.9876988     2.531053  -0.01576716     16504.72
        8454    0.9881147     2.514441  -0.01509082     16508.23
        8455    0.9888606     2.499629  -0.01391675     16511.54
        8456    0.9897601     2.486899  -0.01178566     16515.37
        8457     0.991001     2.475386 -0.009358724     16519.61
        8458    0.9923006     2.467298 -0.006560721     16523.71
        8459    0.9932502     2.462194 -0.003468113     16527.16
        8460    0.9941207     2.460656 -0.0005834685     16530.84
        8461    0.9944056     2.461513  0.002160512     16534.79
        8462     0.994357     2.464965  0.004531466     16539.25
        8463      0.99383     2.470836  0.006507068     16542.49
        8464    0.9928373     2.478782  0.008344657     16545.59
        8465    0.9916972     2.487542  0.009666002     16548.89
        8466    0.9899646     2.498343   0.01046697     16552.39
        8467    0.9876333       2.5095    0.0111384     16556.52
        8468    0.9842083      2.52065   0.01141662     16559.85
        8469    0.9800804     2.532095   0.01122328     16563.32
        8470    0.9753236      2.54401   0.01073893     16566.32
        8471    0.9700643     2.554393  0.009577924      16568.2
        8472    0.9652106     2.563606  0.007758787     16571.87
        8473    0.9604833     2.570407  0.005960476     16575.75
        8474    0.9559107     2.575045  0.003875024     16579.55
        8475    0.9515504     2.578235  0.001840173     16583.06
        8476    0.9478251     2.579106 8.575803e-05     16586.32
        8477    0.9453963     2.577768 -0.001481542      16588.9
        8478    0.9440503     2.575388 -0.002419465     16591.91
        8479    0.9439198     2.572309 -0.002479789     16595.27
        8480    0.9445735     2.569428 -0.001929703     16599.57
        8481    0.9467333     2.567849 -0.000569091     16605.81
        8482    0.9499072     2.567669  0.001673431     16610.71
        8483    0.9540959     2.570032  0.004586993     16615.11
        8484    0.9590048     2.576122   0.00798738     16619.33
        8485     0.964533     2.586196   0.01174258     16621.24
        8486    0.9705402     2.599619   0.01510964     16623.48
        8487    0.9763363     2.617003   0.01768225     16626.44
        8488    0.9816788      2.63656   0.01925615     16630.76
        8489    0.9866993     2.656925   0.01962941     16633.83
        8490    0.9914053     2.676643   0.01901927     16636.69
        8491    0.9960935      2.69552   0.01751402     16642.02
        8492     1.000283     2.712637   0.01558713     16647.72
        8493     1.004316     2.726982   0.01299435     16652.42
        8494      1.00832     2.738992    0.0104587     16654.75
        8495     1.011815     2.747498  0.008092365     16657.11
        8496     1.014774     2.754472  0.005663701      16660.8
        8497     1.017564     2.759351  0.003754292     16665.07
        8498     1.019198     2.761647  0.002046484     16666.68
        8499     1.020369     2.762515 0.0002913503     16668.77
        8500     1.021639     2.762658 -0.001012137     16672.52
        8501     1.022651     2.760516 -0.002449769      16676.6
        8502     1.023858     2.757598 -0.004110202     16681.33
        8503      1.02531     2.752716 -0.006022994     16686.36
        8504     1.026658     2.746217 -0.008307944     16690.38
        8505     1.028375     2.736424  -0.01073051     16693.95
        8506     1.030018     2.724366  -0.01301065     16697.71
        8507     1.031915     2.709794  -0.01484648     16701.03
        8508     1.033861     2.694175  -0.01684726     16704.31
        8509     1.035712     2.677039  -0.01847772     16707.51
        8510     1.037432     2.656977  -0.02009438     16711.06
        8511     1.039184     2.635883   -0.0214543     16715.54
        8512     1.040896     2.613797   -0.0224566     16720.59
        8513     1.043661     2.591221  -0.02326483     16725.41
        8514     1.048039     2.567151  -0.02389432     16726.53
        8515     1.052423     2.542823   -0.0243992     16713.65
        8516     1.054527      2.51822  -0.02422709     16690.95
        8517     1.056508     2.493625  -0.02354478     16683.93
        8518     1.057011     2.470242  -0.02201843     16682.99
        8519     1.056359     2.448644   -0.0200463     16684.07
        8520     1.056143     2.430146  -0.01757778     16684.06
        8521     1.054444     2.413439  -0.01458786     16685.84
        8522     1.051723     2.399931  -0.01143569     16689.61
        8523     1.049263     2.390293 -0.007856811     16694.93
        8524     1.047728     2.384403 -0.004180282     16702.03
        8525     1.046997     2.382012 -0.0006510878     16704.39
        8526     1.044335      2.38321  0.002505961     16706.88
        8527     1.039731     2.387688  0.005419459     16710.21
        8528     1.035898     2.394427  0.008052979     16718.89
        8529     1.031345      2.40369  0.009930901     16724.86
        8530     1.026551     2.415422   0.01152545     16727.37
        8531     1.022355     2.427412   0.01255796     16728.48
        8532     1.019469     2.440529   0.01275445     16732.51
        8533     1.015583     2.453922   0.01295468     16735.08
        8534     1.009688      2.46644   0.01266164     16737.13
        8535     1.004675     2.479231   0.01188574     16743.95
        8536    0.9999239     2.491176   0.01131038      16748.3
        8537    0.9950606     2.501465   0.01014984     16751.37
        8538    0.9917588     2.511681  0.008941164     16750.43
        8539    0.9881431      2.51983  0.007806535     16751.87
        8540    0.9841014      2.52694  0.006590741     16760.47
        8541    0.9815581     2.532691  0.005239933      16764.6
        8542    0.9801587     2.538044   0.00379642     16766.13
        8543    0.9787225      2.54079  0.002270758     16771.18
        8544    0.9783881     2.542126  0.000605449     16778.45
        8545     0.979354     2.541774 -0.0003722676     16781.81
        8546    0.9792621     2.540466 -0.001135227     16783.41
        8547    0.9790565     2.539301 -0.001860581     16787.44
        8548    0.9789293     2.537585 -0.002015363     16792.03
        8549    0.9791574     2.534332 -0.002453845     16796.22
        8550    0.9806437     2.532405 -0.002686045     16800.92
        8551    0.9816872     2.529485 -0.002640531     16807.01
        8552     0.982653     2.526841 -0.003036048     16807.64
        8553    0.9846166     2.523769 -0.003239003     16810.73
        8554    0.9866728     2.520261 -0.003523685     16814.66
        8555    0.9881472     2.516529 -0.003653512     16818.03
        8556    0.9901842     2.512746 -0.003894534      16821.8
        8557    0.9921785     2.509155  -0.00401425     16825.43
        8558    0.9937216     2.504682   -0.0041793     16831.26
        8559    0.9950788     2.500472 -0.004220497     16834.53
        8560    0.9958016     2.496029 -0.003775063     16834.86
        8561    0.9964759     2.492273 -0.003164441     16836.93
        8562    0.9971648     2.489582 -0.001843035     16842.75
        8563    0.9986575     2.487815 -0.0003432736      16847.8
        8564     1.000074     2.488657  0.001337925     16851.03
        8565     1.000372       2.4909  0.003274647     16854.53
        8566     1.000501     2.494934  0.004992048     16861.64
        8567     1.000726     2.500913  0.006629944     16863.41
        8568     1.001206     2.508625  0.008072539     16863.56
        8569     1.000773      2.51742  0.009100773     16867.67
        8570      1.00089     2.527224  0.009449508     16873.36
        8571     1.002274     2.537316  0.009496159     16880.26
        8572     1.003824     2.546423  0.009061773     16888.53
        8573     1.004822     2.555405   0.00832015     16894.58
        8574     1.005999     2.563471  0.007742253     16896.92
        8575     1.007306     2.570597  0.006936353     16898.72
        8576     1.007508     2.577392   0.00600653     16903.92
        8577      1.00756      2.58315  0.005114281     16907.43
        8578      1.00832     2.587497   0.00407344     16912.77
        8579     1.009462     2.591054  0.003145866     16918.63
        8580     1.010404     2.593686  0.002347358      16923.3
        8581     1.011184     2.595734  0.001389233     16926.36
        8582     1.012084     2.596887 0.0005127891      16931.9
        8583     1.013279     2.596611 -0.0006764094     16935.23
        8584     1.014408     2.595737 -0.001816103     16937.59
        8585     1.015223     2.593028 -0.002939874     16938.12
        8586     1.015758     2.589622  -0.00428887     16940.08
        8587     1.016084     2.584852 -0.005433711     16941.87
        8588     1.017296     2.578581 -0.006840244     16942.66
        8589     1.018164     2.571293 -0.007936107     16946.09
        8590      1.01932     2.562261 -0.009016106     16954.13
        8591      1.02003     2.553107 -0.009940666     16959.42
        8592     1.019099     2.542517  -0.01052421     16959.62
        8593     1.018743      2.53153  -0.01120322     16958.78
        8594     1.019011     2.520164  -0.01153909     16963.99
        8595     1.018311     2.508294  -0.01160303     16967.83
        8596     1.017099     2.496361  -0.01146853     16970.83
        8597     1.016149     2.485118  -0.01119658     16972.11
        8598     1.015279      2.47429   -0.0108319     16974.09
        8599     1.013821     2.463508   -0.0104881     16977.52
        8600     1.011741     2.453033  -0.01000884     16984.66
        8601      1.00919     2.443166  -0.00912352     16988.61
        8602     1.006685     2.434255 -0.008189249     16988.54
        8603     1.004825     2.427014 -0.007210503     16992.67
        8604     1.002736     2.420276 -0.006307999     16999.93
        8605     1.001428     2.414324 -0.005416847     17007.37
        8606     1.000243     2.409023 -0.004503471     17010.08
        8607    0.9984605     2.405346 -0.003617891     17014.09
        8608     0.997042     2.402262 -0.002640859      17019.1
        8609    0.9950405     2.399852 -0.001728707     17021.75
        8610    0.9935402     2.398459 -0.001175163     17024.79
        8611    0.9931171     2.398432 -0.000573175     17029.87
        8612    0.9932836     2.397562 -0.0002338749     17034.33
        8613    0.9933627      2.39756 -0.0002025397     17035.88
        8614    0.9932527     2.397524 -5.004858e-05     17038.05
        8615    0.9926767     2.397621 -6.504505e-05     17043.09
        8616    0.9924471     2.397361 -0.0001689159     17044.36
        8617    0.9928685       2.3973 -0.0002351968     17044.94
        8618    0.9932502     2.396848 -0.0001930691     17047.12
        8619    0.9934536     2.396681 -0.0002378702     17047.96
        8620    0.9936566     2.396589 -0.000215901      17048.9
        8621    0.9939822     2.396348 -0.0003609288     17043.89
        8622    0.9951739     2.395985 -0.0002708078     17025.06
        8623    0.9965372     2.395237 -0.0003321629     16941.83
        8624    0.9953285     2.395506 -0.0001321275     16801.94
        8625    0.9950843     2.395019 -0.0001157264     16832.79
        8626    0.9938699     2.395456 -0.0003264273     16892.56
        8627    0.9957283     2.394774 -0.0001613992     17044.04
        8628    0.9972806       2.3942 -0.0001769811     17081.35
        8629    0.9981268     2.394374 0.0001962781     17091.92
        8630     0.998975     2.394748 0.0006159371     17096.91
        8631    0.9996442     2.395559 0.0008867478     17103.24
        8632     1.000174     2.396664  0.001301234     17108.99
        8633     1.000606     2.397921  0.001552119     17110.92
        8634     1.000517     2.399953  0.001739629     17112.38
        8635     1.000343     2.401768  0.001930376     17116.39
        8636    0.9999652     2.403622  0.002123724      17122.4
        8637     0.999523     2.405642  0.002197917     17128.13
        8638    0.9999885     2.408448  0.002221274     17130.41
        8639     1.000177     2.410559  0.002284738     17132.17
        8640     1.000474     2.412508  0.001991149     17135.44
        8641     1.001063     2.414781   0.00184808     17136.81
        8642     1.001566     2.416413  0.001799837     17138.32
        8643     1.002194     2.417952  0.001705782     17140.98
        8644     1.003162     2.419707  0.001610649     17144.62
        8645     1.003722     2.421604  0.001481289     17146.62
        8646      1.00364     2.422855  0.001289858     17152.19
        8647     1.003391     2.423877 0.0009462333     17156.72
        8648     1.003757     2.424866 0.0007925828     17160.94
        8649     1.004421     2.425389 0.0007755586        17166
        8650     1.004933     2.426026 0.0009045152     17170.95
        8651     1.005393     2.426979 0.0008370738     17176.57
        8652       1.0062     2.428484 0.0008323988     17181.22
        8653     1.007171     2.428738 0.0007525602     17184.63
        8654     1.007409     2.429355 0.0006616343     17186.46
        8655      1.00736     2.429989 0.0008833972     17189.93
        8656     1.008061     2.431131 0.0009496836     17195.64
        8657     1.009048     2.432271  0.001171937     17199.04
        8658     1.010022     2.433154  0.001152742     17201.66
        8659     1.010448     2.434677   0.00126127     17205.32
        8660     1.011011     2.435742  0.001381145     17207.25
        8661     1.011587     2.437316  0.001432042     17210.35
        8662     1.011763     2.438679  0.001524857     17213.69
        8663     1.012201     2.440405  0.001396071     17218.22
        8664     1.013206     2.441841  0.001527749     17221.48
        8665     1.014526     2.442901  0.001347656     17222.46
        8666     1.015098      2.44479  0.001317266     17222.93
        8667     1.015285     2.445796  0.001048048     17228.19
        8668     1.015145      2.44711 0.0006086911     17231.28
        8669     1.015465     2.447093 0.0002374751     17234.57
        8670     1.016101     2.447224 -0.0003977031     17239.59
        8671     1.015939     2.446746 -0.0007876375     17244.13
        8672     1.014783      2.44552 -0.001518431     17246.19
        8673     1.013238     2.443942 -0.001935343     17248.74
        8674     1.012385     2.441151   -0.0023203     17253.51
        8675     1.011735     2.439004  -0.00273306      17255.2
        8676     1.010772     2.436238 -0.002963613     17257.61
        8677     1.009238      2.43301 -0.003335037     17261.74
        8678     1.007463     2.429296 -0.003790544     17265.24
        8679     1.006084     2.425664 -0.004020474     17271.29
        8680     1.004488     2.421076 -0.004279183     17273.76
        8681     1.002612     2.416928 -0.004496173     17277.47
        8682     1.000907     2.412179 -0.004448935     17282.03
        8683    0.9996334     2.407679 -0.004558563     17285.37
        8684    0.9984664      2.40328 -0.004474658     17287.82
        8685    0.9969302     2.398694  -0.00460284     17288.62
        8686    0.9952986     2.394281 -0.004501056     17290.53
        8687    0.9935122     2.389268 -0.004289151     17292.91
        8688    0.9921983     2.385276 -0.004137695     17295.41
        8689    0.9910058     2.381537 -0.003643283     17298.59
        8690    0.9899496      2.37773 -0.003260473     17302.51
        8691    0.9893719     2.374695 -0.002897024     17305.74
        8692     0.989069     2.372234 -0.002349442      17308.6
        8693    0.9886963     2.369949 -0.001895039     17312.07
        8694    0.9882561     2.368332 -0.001555403     17316.09
        8695    0.9886124     2.367115 -0.001186272     17320.53
        8696    0.9885476     2.366013 -0.0008041674     17325.25
        8697    0.9882474     2.365204 -0.0005797304     17324.44
        8698    0.9883723     2.365116 -0.000402823     17310.91
        8699    0.9882175     2.364796 -0.0003138709     17298.08
        8700    0.9880272     2.364401 -0.0005070046     17305.33
        8701    0.9882782     2.363949 -0.0006500633     17316.92
        8702    0.9884976     2.363088 -0.0008539055     17330.85
        8703    0.9883167     2.362196 -0.001079925     17339.13
        8704    0.9885163     2.360986 -0.001411096     17343.73
        8705    0.9888121     2.359629 -0.001826711      17344.7
        8706    0.9887732     2.357443 -0.002124794      17335.2
        8707    0.9889331     2.354889 -0.002693306     17325.69
        8708    0.9895249     2.352487 -0.003038821      17332.4
        8709    0.9897529     2.348856 -0.003334595      17341.4
        8710     0.989916     2.345288  -0.00367436     17352.66
        8711    0.9900509      2.34155 -0.003770016     17362.24
        8712    0.9894467     2.337789 -0.003890561     17368.12
        8713     0.989416     2.333776 -0.003837891     17373.33
        8714    0.9894747     2.329726  -0.00355103     17376.42
        8715    0.9892522     2.326199 -0.003192083     17380.82
        8716    0.9885059     2.323585 -0.002731906     17385.31
        8717    0.9880446     2.321007 -0.002252858      17388.5
        8718    0.9877903     2.318798 -0.001862067      17392.6
        8719    0.9876283     2.317187 -0.001306602     17397.97
        8720    0.9876445     2.316137 -0.0009747266     17401.77
        8721    0.9876186     2.315781 -0.0006805001     17404.37
        8722    0.9878002     2.314899 -0.0006354943     17405.28
        8723    0.9877526     2.314465 -0.0006410806     17407.99
        8724    0.9878671     2.313595 -0.0004580856     17411.56
        8725    0.9883218     2.313216 -0.0005034759     17415.71
        8726    0.9884407     2.313067 -0.0004078912     17418.63
        8727     0.989035     2.312451 -0.0004961191     17423.06
        8728    0.9896525     2.311963 -0.0006101144     17427.12
        8729    0.9903949     2.311232 -0.0003820634     17429.95
        8730    0.9907808     2.310626 -0.000339171     17431.45
        8731    0.9916933     2.310923 -0.0002710608     17434.04
        8732    0.9927985     2.310607 -4.241045e-05     17437.73
        8733    0.9940434     2.310148 -0.000209108     17443.83
        8734    0.9947817     2.310457 -2.015676e-05     17449.62
        8735    0.9948571     2.310087 0.0001369237     17452.06
        8736    0.9947436     2.310526 8.443491e-05     17454.33
        8737    0.9947204     2.310695  0.000166616     17457.05
        8738    0.9955602     2.310794 0.0001519135     17461.42
        8739    0.9964508     2.310753 0.0001840312     17466.61
        8740    0.9973464     2.311134 0.0002530288     17470.06
        8741    0.9983671     2.311432 0.0003989086     17470.67
        8742     0.999352     2.311806 0.0003255999     17472.34
        8743     1.000174     2.312349 0.0003393624     17474.86
        8744      1.00083     2.312436 0.0003977342     17476.73
        8745     1.001496     2.312789  0.000408569     17481.83
        8746     1.002303     2.313397 0.0004892022     17485.01
        8747     1.002573     2.313983 0.0006339943     17486.19
        8748     1.002875     2.314393 0.0005325172     17487.59
        8749     1.003233     2.315325 0.0004467012     17489.01
        8750      1.00362     2.315528 0.0004786109     17492.46
        8751     1.004106      2.31577 0.0002920367     17496.11
        8752     1.004399     2.316307 0.0004414756     17497.76
        8753      1.00471     2.316493 0.0005911189     17500.87
        8754     1.005664     2.317293 0.0004802362      17506.4
        8755        1.007     2.318134 0.0005622484     17509.93
        8756      1.00771     2.318228 0.0004260208     17512.44
        8757     1.007909     2.318742 0.0002472832     17515.09
        8758     1.008499     2.318997 0.0002654617     17516.14
        8759     1.009239     2.319124 0.0001592512     17519.35
        8760     1.009563      2.31929 0.0001487622     17523.79
        8761     1.009615     2.319379 0.0002392307     17528.49
        8762      1.00886     2.319593 0.0002277974     17534.05
        8763     1.007956      2.32008 0.0003289389     17537.66
        8764     1.007302     2.320201 0.0001703266     17540.09
        8765     1.006884     2.320695 9.700336e-05     17543.22
        8766     1.006553     2.320274 0.0001253718     17545.68
        8767     1.006439     2.320469 -1.631558e-05     17547.96
        8768     1.005941     2.320703 0.0001157315     17550.64
        8769     1.005741      2.32063 4.711099e-05     17554.94
        8770     1.005147     2.320737 -7.047375e-05     17557.05
        8771     1.004212     2.320657 -0.0001011945     17560.65
        8772     1.002974     2.320421 -0.0003068529     17564.28
        8773     1.001656     2.320225 -0.0003783135        17567
        8774     1.000657     2.319509 -0.0003649858     17570.99
        8775    0.9996941     2.319144 -0.0005527684     17573.57
        8776    0.9988175     2.318961 -0.0005695878     17575.94
        8777    0.9984656     2.318014 -0.0008151744     17578.01
        8778    0.9979342     2.317231 -0.001124407     17578.55
        8779    0.9972615     2.315883 -0.001169788     17580.03
        8780    0.9964406     2.314463 -0.001458731     17582.99
        8781    0.9962635     2.313335 -0.001536677     17587.02
        8782    0.9964158     2.311396 -0.001603634     17591.25
        8783    0.9968571     2.309736 -0.001816094     17593.99
        8784    0.9970635     2.308049 -0.001875605     17595.49
        8785    0.9964125      2.30607 -0.002115754     17596.99
        8786    0.9956889     2.303894 -0.002345052     17600.23
        8787    0.9950142     2.301273 -0.002458302     17602.41
        8788    0.9949689     2.298669 -0.002684331     17602.59
        8789     0.994968     2.296237  -0.00264968     17603.96
        8790    0.9953248     2.293156 -0.002623403     17608.52
        8791    0.9954179     2.290675 -0.002581657     17612.58
        8792    0.9953736     2.288175  -0.00249624      17616.6
        8793    0.9956206      2.28591 -0.002449076     17619.15
        8794    0.9960407     2.283171 -0.002338971     17621.86
        8795    0.9960735     2.280878 -0.002248179     17623.98
        8796    0.9963063     2.278819 -0.002130836     17626.79
        8797    0.9966528     2.276918 -0.001910897     17629.03
        8798    0.9969365     2.274648 -0.001796507     17630.76
        8799    0.9965882     2.273235 -0.001616314     17632.69
        8800    0.9958269     2.271633 -0.001388428     17634.14
        8801    0.9955207     2.270452 -0.001385587     17636.28
        8802    0.9956012     2.269094 -0.001077474     17639.56
        8803    0.9956992     2.267692 -0.001101183     17642.13
        8804    0.9957264     2.267323 -0.001006969     17646.49
        8805    0.9955632     2.266048 -0.0006929243     17649.53
        8806    0.9954161     2.265066 -0.0007653307     17651.83
        8807    0.9952265     2.264921 -0.0006078106     17655.42
        8808    0.9950851     2.264262 -0.0004770506     17658.19
        8809    0.9953586     2.263616 -0.0006734711     17660.96
        8810    0.9956611     2.263158 -0.0005259677     17663.93
        8811    0.9955429     2.262227 -0.0005548556     17667.45
        8812    0.9950304     2.262158 -0.0006577475     17669.21
        8813    0.9948617     2.261397 -0.000461419     17670.32
        8814    0.9946552     2.260527 -0.0006561393     17672.84
        8815    0.9946051     2.260381 -0.0006241471     17677.38
        8816    0.9946525     2.259533 -0.0006372516     17680.78
        8817     0.994548       2.2589 -0.000865734     17684.12
        8818    0.9948254     2.257978 -0.0009071766     17686.59
        8819     0.995007     2.256918 -0.0009690402     17688.92
        8820    0.9948327     2.255905 -0.001092296     17690.64
        8821      0.99474     2.255024 -0.001148693     17691.84
        8822    0.9950195     2.253609 -0.001164431     17692.57
        8823     0.995006     2.252323 -0.001378692     17691.25
        8824    0.9946586     2.251247 -0.001369407     17690.11
        8825    0.9945726      2.24951 -0.001607459     17689.96
        8826    0.9940852     2.248131 -0.001671111     17687.19
        8827    0.9936385     2.245894 -0.001670388     17682.27
        8828     0.993752     2.244562 -0.001760156     17674.26
        8829    0.9941337     2.242828  -0.00182421     17656.19
        8830    0.9950408     2.241091 -0.001777444     17612.65
        8831    0.9970824     2.238597 -0.001479408     17476.68
        8832    0.9983795     2.237453 -0.001712821     17192.21
        8833    0.9933247      2.23691 -0.001307112     17201.26
        8834    0.9962337      2.23424 -0.001304528     17332.78
        8835    0.9955495     2.233368 -0.001626479     17212.72
        8836    0.9928194     2.232235 -0.001310806     17457.73
        8837    0.9947417     2.230404 -0.001387705     17688.44
        8838    0.9955231     2.228996 -0.001367192     17742.06
        8839    0.9956481     2.227817 -0.001147759     17755.81
        8840     0.995766     2.226766 -0.001125996     17761.88
        8841    0.9961335     2.225813  -0.00113557     17764.88
        8842    0.9965568     2.224492 -0.001071719     17767.66
        8843    0.9966069     2.223275 -0.001154615     17769.82
        8844    0.9968349     2.222479 -0.001129172     17773.25
        8845    0.9973065     2.221195 -0.001018909     17775.11
        8846    0.9976709     2.219976 -0.001101088      17777.3
        8847    0.9980199     2.219199 -0.001159394     17779.75
        8848    0.9984936     2.218075 -0.001060929     17783.41
        8849    0.9992313     2.216557 -0.001151447     17788.32
        8850    0.9995444     2.215732 -0.001145693     17791.32
        8851    0.9998533     2.214594 -0.0009717969     17793.92
        8852     1.000183     2.213492 -0.0009605812     17795.46
        8853     1.000646      2.21267 -0.0009852503     17797.37
        8854     1.001229      2.21189 -0.0008500645     17799.13
        8855     1.001526     2.210653 -0.0008114292     17803.12
        8856     1.001361     2.210092 -0.0007580446      17804.4
        8857     1.000961     2.209424 -0.000570256     17805.96
        8858     1.000958     2.208857 -0.0005755848     17808.64
        8859     1.000866     2.208372 -0.0005071704     17811.18
        8860     1.000989     2.207789 -0.0004671026     17815.96
        8861     1.000953     2.207396 -0.0004175914     17821.56
        8862     1.001184     2.206989 -0.0003581743     17827.68
        8863      1.00111     2.206701 -0.0002998166     17831.12
        8864     1.000467     2.206357 -0.0003293514     17833.16
        8865      1.00005     2.206196 -0.0002124881      17834.5
        8866    0.9997281     2.205672 -0.000118957     17836.29
        8867    0.9991827     2.205851 -9.231463e-05     17838.12
        8868    0.9985364     2.205881 3.191561e-05      17839.6
        8869    0.9982928     2.205827 -2.405092e-05     17841.75
        8870    0.9980188     2.205799 -4.908571e-05      17844.8
        8871    0.9981027     2.205755 -1.177907e-05     17848.04
        8872    0.9980486     2.205684 3.748671e-05     17851.12
        8873    0.9982377      2.20578 9.868334e-05     17855.62
        8874    0.9981978     2.205949 0.0001689258     17859.32
        8875    0.9981311      2.20615 0.0001466052     17862.19
        8876    0.9978581      2.20636 0.0001822522     17864.45
        8877    0.9975796     2.206367 0.0001803663     17865.85
        8878    0.9973467     2.206678 0.0001957691     17867.36
        8879    0.9971992     2.206871 0.0003011035      17870.5
        8880    0.9972214     2.207143 0.0002695231     17874.08
        8881     0.997373     2.207571 0.0002751276     17877.89
        8882    0.9972055     2.207756 0.0002750974     17880.35
        8883    0.9970257     2.207972 0.0002338713     17882.05
        8884    0.9969667     2.208244 0.0003173561     17883.73
        8885    0.9967031     2.208506 0.0003164759     17886.38
        8886    0.9963221     2.209026 0.0002895092     17889.84
        8887    0.9958948     2.209238  0.000219641      17892.6
        8888    0.9956236     2.209402 4.623501e-05     17896.16
        8889    0.9956288     2.209385 -4.102324e-06     17899.81
        8890    0.9953528     2.209211 -1.138987e-05     17903.29
        8891    0.9951925     2.209221 -0.000105299     17905.35
        8892    0.9954255     2.209356 -0.0002548624     17907.91
        8893    0.9955325     2.208964 -0.0002591972     17909.27
        8894    0.9956245     2.208191 -0.0004964868     17911.71
        8895    0.9952143     2.208185 -0.0005405874     17914.98
        8896    0.9953179      2.20737 -0.0005693788     17918.06
        8897    0.9956277     2.206801 -0.0008005193     17921.05
        8898        0.996     2.205914 -0.0008260406     17923.22
        8899    0.9962802     2.204982 -0.0009691808     17925.95
        8900    0.9962756     2.204066 -0.001127353     17928.52
        8901     0.996123     2.202925  -0.00130243      17931.7
        8902    0.9959948     2.201404 -0.001440423     17934.68
        8903     0.995938     2.199773  -0.00156145     17937.09
        8904    0.9960288     2.198304 -0.001643501     17940.97
        8905    0.9959422     2.196679 -0.001727399     17941.85
        8906    0.9957339      2.19483 -0.001769414        17943
        8907    0.9953658     2.192863 -0.001835255     17946.51
        8908    0.9948045     2.191227 -0.001814313     17949.15
        8909    0.9944993     2.189338 -0.001757773     17951.91
        8910    0.9942124     2.187573 -0.001749475     17954.92
        8911    0.9939215     2.185832 -0.001650428     17958.73
        8912    0.9938485     2.184229 -0.001673262     17962.08
        8913    0.9940508     2.182736 -0.001639687     17964.83
        8914    0.9941409      2.18088 -0.001599338     17966.53
        8915    0.9940116     2.179273 -0.001570791     17968.42
        8916    0.9942192     2.177831 -0.001412191     17971.27
        8917    0.9943682     2.176453 -0.001349448      17973.3
        8918    0.9943443     2.175231 -0.001297812     17974.73
        8919    0.9945685     2.173876 -0.001310194     17979.04
        8920    0.9945286      2.17264  -0.00133797     17982.29
        8921    0.9948038     2.171212 -0.001248979     17984.68
        8922    0.9950491     2.169879 -0.001146755     17986.53
        8923    0.9951963      2.16888 -0.001038668     17989.69
        8924    0.9956139     2.168053 -0.0009695367     17993.17
        8925    0.9958388     2.167058 -0.001002626      17995.3
        8926    0.9962309     2.166001 -0.001084422     17998.91
        8927    0.9964972     2.164869 -0.001040364     18001.38
        8928     0.996858     2.163715 -0.001004639      18002.6
        8929    0.9970592     2.162896 -0.0009078589     18003.46
        8930    0.9974483     2.161983 -0.0008941938     18006.39
        8931    0.9977367     2.161238 -0.0009540733     18010.02
        8932    0.9982397     2.160139 -0.0008872045     18013.68
        8933    0.9986365      2.15908 -0.0007957604     18015.12
        8934    0.9988961     2.158434 -0.0008085753      18018.7
        8935    0.9989671     2.158055 -0.0007674927     18021.23
        8936    0.9989949     2.156904 -0.0007425383     18017.86
        8937    0.9998644      2.15601 -0.0007601999      17992.9
        8938     1.000368     2.155464 -0.0006927198     17939.35
        8939    0.9999479     2.155014 -0.000664856     17922.16
        8940    0.9997397     2.154133 -0.0007464418     17943.21
        8941    0.9997353      2.15335 -0.0008055447     17998.44
        8942     1.000171     2.152478 -0.0007466764     18021.66
        8943     1.000452     2.151792 -0.0008198496     18029.58
        8944     1.000498     2.151147 -0.0007949768     18034.97
        8945     1.000514     2.150071 -0.0009029951     18041.01
        8946     1.000317     2.149298 -0.0009555477     18045.92
        8947     1.000291      2.14818 -0.000848312     18050.27
        8948     1.000226     2.147324 -0.000857876     18053.19
        8949     1.000231     2.146678 -0.0007529534     18055.04
        8950     1.000271     2.145866 -0.0008241122     18056.24
        8951     1.000447     2.145168 -0.000843452     18058.17
        8952     1.000578     2.144028 -0.0008693959     18060.34
        8953     1.000765     2.143304 -0.0009067233     18061.71
        8954      1.00112     2.142389 -0.0008408021     18065.98
        8955     1.001262     2.141541 -0.0008628642     18069.85
        8956     1.001519     2.140665 -0.0009187405     18071.89
        8957     1.001414     2.139853 -0.0009697834     18072.39
        8958     1.001334     2.138714 -0.0009787352     18074.93
        8959     1.001437     2.137662 -0.0009852098     18076.81
        8960     1.001577      2.13675 -0.0008932223     18077.77
        8961     1.001917     2.135912 -0.0007910976     18080.99
        8962     1.001812     2.135141 -0.0008831213     18084.09
        8963     1.001276     2.134497 -0.0009127423     18086.52
        8964     1.000965     2.133217 -0.0009363879     18089.78
        8965     1.000824     2.132261 -0.001086163     18093.33
        8966     1.000834     2.131395 -0.001112289     18097.62
        8967     1.000913     2.130153 -0.001031332     18099.14
        8968     1.001118     2.128768 -0.001081641     18099.61
        8969      1.00146     2.128135 -0.0009501203     18101.87
        8970     1.001902     2.127069 -0.0008225542      18103.3
        8971     1.002101     2.126352 -0.0009695907      18107.4
        8972      1.00226     2.125478 -0.0008685393     18112.07
        8973     1.002427     2.124257 -0.000921395     18114.99
        8974     1.002398     2.123595 -0.0008800908        18117
        8975     1.002517     2.122667 -0.000821222     18119.19
        8976     1.002393     2.121958 -0.0008269175     18120.39
        8977     1.002331     2.120972 -0.0008611883     18122.77
        8978      1.00209     2.120287 -0.0008216725     18124.29
        8979     1.001874     2.119222 -0.0007553819     18126.17
        8980     1.001567     2.118671 -0.0008068119     18128.24
        8981     1.001751     2.117951 -0.0006221998     18130.16
        8982     1.001795      2.11706 -0.0006779143     18129.92
        8983     1.001461     2.116733 -0.0007157752     18130.92
        8984     1.001111     2.115959 -0.0006555832     18132.51
        8985     1.000878     2.115088 -0.0008026936     18135.47
        8986      1.00055     2.114438 -0.0007483289     18137.47
        8987    0.9999972     2.113522 -0.0007021375     18139.39
        8988    0.9998729     2.112966 -0.0006009351     18142.59
        8989    0.9996229     2.112279 -0.0005372551     18143.92
        8990    0.9996563     2.112034 -0.0005638577     18146.66
        8991    0.9996391     2.111373 -0.0005372995     18146.84
        8992    0.9996245     2.110711 -0.0005572169     18147.98
        8993    0.9999837      2.11013 -0.0004818576     18150.12
        8994     1.000409     2.109805 -0.0005280815     18151.29
        8995     1.001011     2.109446 -0.0005499182     18154.04
        8996     1.001206     2.108598 -0.0005822899      18156.4
        8997     1.001221      2.10793 -0.0006372866     18159.46
        8998       1.0009     2.107476 -0.0006012774     18161.39
        8999     1.000684     2.106897 -0.0004753218     18163.67
        9000     1.000455     2.106193 -0.0004904186     18165.07
        9001     1.000355     2.106029 -0.0004403505     18167.99
        9002     1.000229     2.105514 -0.0003981144     18170.41
        9003     1.000128     2.105135 -0.0004844345     18173.25
        9004     1.000283     2.104601 -0.0004936663     18177.34
        9005     1.000417     2.104091 -0.0005573583     18180.06
        9006     1.000491     2.103539 -0.000514046     18181.96
        9007     1.000541     2.102906 -0.0005089813     18184.15
        9008     1.000553     2.102544 -0.0005150474     18187.67
        9009     1.000464     2.102055 -0.0004297806     18189.85
        9010     1.000254     2.101479 -0.0004395526     18190.32
        9011     1.000213     2.101187 -0.0004316034     18192.05
        9012     1.000294     2.100786 -0.0003321337      18193.4
        9013     1.000574     2.100329 -0.0003744002     18195.26
        9014     1.000794     2.100151 -0.0004179697     18197.86
        9015     1.000919     2.099689 -0.0003693592     18199.98
        9016     1.000821     2.099114 -0.0005300758      18203.2
        9017     1.000098     2.098851 -0.0005081074     18204.58
        9018    0.9993581      2.09803 -0.0004686704     18206.19
        9019    0.9988484     2.097657 -0.0005885135      18209.5
        9020    0.9983736      2.09724 -0.0004982109     18213.88
        9021    0.9980214     2.096497 -0.0004498104     18216.72
        9022    0.9978134     2.096038 -0.0005107695     18218.57
        9023    0.9977915     2.095858 -0.0005333729     18221.36
        9024    0.9980329     2.095197 -0.000575758     18224.09
        9025    0.9983557     2.094364 -0.0006790078     18225.24
        9026    0.9986806     2.093735 -0.0006599607     18227.52
        9027    0.9988492     2.093142 -0.0005965335     18230.06
        9028    0.9991615     2.092557 -0.0006430369     18233.82
        9029    0.9993601     2.091978 -0.0007257735     18236.97
        9030    0.9995309     2.091162 -0.0006934138     18239.02
        9031    0.9996222     2.090238 -0.0007587447     18241.16
        9032    0.9995818     2.089783 -0.0007824632     18242.97
        9033    0.9992515     2.088943 -0.0007063177      18244.1
        9034    0.9989106     2.088033 -0.0007700284     18245.62
        9035    0.9988266     2.087413 -0.000764362     18249.17
        9036    0.9988126     2.086703 -0.0007377221     18251.49
        9037    0.9989221     2.085885 -0.0007481121     18254.18
        9038    0.9987695     2.085082 -0.0008391963        18256
        9039    0.9986506     2.084421 -0.0007992675     18256.46
        9040    0.9988628     2.083346 -0.0007423225     18256.97
        9041    0.9991784     2.082688 -0.0008161059     18259.03
        9042     0.999542     2.082112 -0.0007141344     18260.86
        9043    0.9997905     2.081156 -0.0007549006     18262.95
        9044     0.999689      2.08049 -0.0008024142     18265.89
        9045    0.9994693     2.079669 -0.0007863938     18270.11
        9046    0.9989954     2.078903 -0.0008717082     18271.84
        9047    0.9988052     2.078011 -0.0008445963     18274.72
        9048    0.9987654     2.077003 -0.0008668415     18277.93
        9049    0.9985465      2.07629 -0.0008632708     18278.69
        9050    0.9983892     2.075435 -0.0008491346      18277.7
        9051    0.9981298     2.074558 -0.0009384876     18279.38
        9052     0.998247     2.073606 -0.0009006741      18283.2
        9053    0.9984201     2.072536 -0.0009357254     18286.23
        9054    0.9982925     2.071833 -0.0009463364     18288.85
        9055    0.9982473     2.070815 -0.0008629318     18290.76
        9056     0.998375     2.069821 -0.0009703176     18292.31
        9057    0.9983105     2.069084 -0.0008651748     18293.41
        9058     0.998165     2.067951 -0.0008359515     18293.89
        9059    0.9980885     2.067354 -0.0008818658     18295.17
        9060    0.9980374     2.066477 -0.0008800458     18297.09
        9061    0.9981492     2.065557 -0.0008829183     18297.22
        9062    0.9986368     2.064431 -0.0009312006     18298.84
        9063    0.9990602     2.063822 -0.000859212     18300.58
        9064    0.9994622     2.062752 -0.0007907676     18302.03
        9065    0.9996399      2.06212 -0.0008330819     18303.59
        9066     0.999764     2.061268 -0.0007560817     18307.02
        9067    0.9996959      2.06049 -0.000868414     18307.87
        9068    0.9996118     2.059728 -0.0007695734     18309.57
        9069    0.9996735     2.058646 -0.0007550252     18312.76
        9070    0.9997765      2.05819 -0.000759263     18315.97
        9071    0.9998682      2.05747 -0.0007466111      18317.8
        9072    0.9999742     2.056691 -0.0008595584     18320.56
        9073     1.000134      2.05566 -0.0008005478     18322.86
        9074     1.000387     2.054752 -0.0008515514     18324.95
        9075     1.000825     2.054268 -0.0008297342     18327.37
        9076     1.001279     2.053285 -0.0007615435     18329.31
        9077      1.00143     2.052341 -0.0007931834      18331.3
        9078      1.00114     2.051705 -0.0008026779      18332.7
        9079      1.00123     2.051095 -0.0008521184      18333.9
        9080     1.001302     2.050074 -0.0008019294     18335.04
        9081     1.001326     2.048933 -0.0008328486        18336
        9082     1.001347     2.048498 -0.0008076254     18335.91
        9083     1.001279     2.047764 -0.000761132     18334.88
        9084     1.001484     2.046844 -0.0008490216     18331.93
        9085     1.001849     2.045888 -0.0009000838     18317.66
        9086     1.002002     2.045102 -0.0008631905     18290.83
        9087     1.002105     2.044163 -0.0007774429      18272.1
        9088     1.001777     2.043391 -0.0008085089     18265.44
        9089     1.001646     2.042778 -0.0007830483     18259.28
        9090     1.001911     2.041868 -0.0007752144     18235.03
        9091     1.002034     2.041031 -0.0008529673     18180.06
        9092     1.002079      2.04029 -0.0006057966     18141.13
        9093       1.0033     2.039366 -0.0006816801     18044.52
        9094     1.000942     2.039444 -0.0007949969      18035.1
        9095        1.001     2.038304 -0.0007809348     18195.56
        9096     1.002907      2.03711 -0.000844739     18213.79
        9097     1.003755     2.036243 -0.0007440633     18080.03
        9098      1.00245     2.036065 -0.0007313093     18076.99
        9099      1.00228     2.035328 -0.0006911292     18183.31
        9100     1.002765     2.034185 -0.0008803279        18265
        9101      1.00264     2.033478 -0.0008453569     18281.21
        9102     1.002292     2.032544 -0.0008104182      18300.9
        9103     1.002005     2.031947 -0.0007629694     18322.04
        9104     1.001642     2.030943 -0.0007434702     18334.04
        9105     1.001194     2.030426 -0.0007370932     18342.16
        9106     1.000763      2.02957 -0.0007273884     18351.91
        9107     1.000363     2.028998 -0.0007847729     18367.78
        9108     1.000164     2.028034 -0.0008211235     18384.15
        9109     1.000137     2.027287 -0.0008673578     18394.74
        9110     1.000215     2.026286 -0.0007558881     18400.05
        9111     1.000461     2.025529 -0.0007763001     18404.78
        9112     1.000747      2.02501 -0.000735139     18407.73
        9113     1.000818     2.024182 -0.0007806039     18409.44
        9114     1.001038     2.023345 -0.0007973486     18413.26
        9115      1.00148     2.022406 -0.000832982     18417.21
        9116     1.001739     2.021821 -0.0008321885     18420.99
        9117     1.001796      2.02085 -0.000781315     18424.92
        9118      1.00176     2.020016 -0.0008840856     18427.28
        9119     1.001872     2.019281 -0.0007754928     18429.74
        9120     1.002015     2.018284 -0.0007357498     18430.85
        9121     1.002138     2.017748 -0.0006482729     18432.32
        9122     1.002031     2.017073 -0.0005715575     18432.29
        9123     1.001697     2.016688 -0.0006866006     18432.21
        9124     1.001635     2.015998 -0.0006963198     18434.83
        9125     1.001282     2.015002 -0.0007427311     18437.51
        9126     1.000855     2.014288 -0.0007843546      18440.9
        9127     1.000554     2.013717 -0.0006933871     18443.07
        9128     1.000503     2.012861 -0.000693465     18444.95
        9129     1.000451     2.012228 -0.0006799383     18447.81
        9130     1.000533     2.011514 -0.000633026     18450.21
        9131     1.000728     2.010997 -0.0005913557     18451.58
        9132     1.000748     2.010328 -0.0006413819     18452.53
        9133     1.000928     2.009863 -0.000639341      18454.1
        9134     1.001495     2.008949 -0.0006393861     18456.67
        9135     1.001714      2.00844 -0.0006127981     18458.91
        9136      1.00186     2.007771 -0.0005235714     18460.18
        9137      1.00211     2.007412 -0.0005504044     18459.79
        9138     1.002583     2.006854 -0.0005428831     18461.48
        9139      1.00296     2.006238 -0.000570337     18462.08
        9140      1.00283     2.005599 -0.0005875004      18462.8
        9141     1.002474      2.00513 -0.0005562938     18464.53
        9142     1.002272     2.004504 -0.0005451987     18467.55
        9143     1.002083     2.004013 -0.0005232023     18470.67
        9144     1.002156     2.003419 -0.0004698603     18473.67
        9145     1.002205     2.003037 -0.000495503     18475.63
        9146     1.002609     2.002625 -0.0005340891     18478.23
        9147      1.00297     2.002031 -0.000500477     18479.84
        9148     1.003322     2.001282 -0.000498649     18480.64
        9149     1.003535     2.001036 -0.0005559938     18482.24
        9150     1.003568      2.00063 -0.0004381756     18482.61
        9151     1.003519     1.999807 -0.0005113086     18483.87
        9152     1.003029      1.99953 -0.0005492799     18484.38
        9153     1.002399      1.99899 -0.0004990724     18485.46
        9154     1.001944     1.998433 -0.0005579424     18487.61
        9155     1.001608     1.997811 -0.000575127     18489.14
        9156     1.001399     1.997298 -0.0005639646     18490.87
        9157     1.001455      1.99669 -0.0005705373     18491.79
        9158     1.001513     1.996177 -0.0006072246     18494.57
        9159     1.001752     1.995529 -0.0006153067     18496.81
        9160     1.002031     1.994869 -0.0006533756     18498.98
        9161     1.002037     1.994229 -0.000566219     18501.85
        9162     1.002105     1.993564 -0.0005669284     18503.62
        9163     1.002102     1.993264 -0.0006024661     18505.86
        9164     1.002223     1.992601 -0.0005560092     18509.21
        9165     1.001972     1.991819 -0.0006638224     18511.25
        9166     1.001727      1.99134 -0.0007158477     18512.33
        9167     1.001842     1.990609 -0.0006473066     18513.05
        9168      1.00217     1.989738 -0.0006460819     18515.82
        9169     1.002421     1.989229 -0.0006745744     18519.75
        9170     1.002301     1.988756 -0.0006188556     18522.72
        9171     1.001981      1.98791 -0.0006236785     18524.08
        9172     1.001669     1.987262 -0.000776594     18524.61
        9173      1.00135     1.986735 -0.0007135099     18525.41
        9174      1.00104     1.985649 -0.000744003     18525.01
        9175     1.000887     1.985056 -0.0007403466      18526.3
        9176     1.000844     1.984286 -0.0007293211     18527.23
        9177     1.000866     1.983773  -0.00072139     18527.21
        9178     1.001214     1.982732 -0.000659819     18527.41
        9179     1.001327     1.982171 -0.0006266028     18527.84
        9180     1.001441     1.981647 -0.0006283713     18528.94
        9181     1.001522     1.981267 -0.0006537761     18530.19
        9182     1.001627     1.980218 -0.0006529474     18531.38
        9183     1.001413     1.979556 -0.0007791175     18532.22
        9184     1.001069     1.979035 -0.0007103526     18532.69
        9185     1.001145      1.97815 -0.0006292266      18535.6
        9186     1.000987     1.977377 -0.000666433      18536.5
        9187      1.00077     1.977039 -0.0006743104     18537.45
        9188     1.000699      1.97637 -0.0006587901     18539.57
        9189     1.000628     1.975453 -0.0006923307     18539.56
        9190     1.000554     1.974742 -0.0006451965     18539.67
        9191     1.000435     1.974269 -0.0005510121     18541.67
        9192     1.000462     1.973789 -0.0005330774     18544.18
        9193     1.000256     1.973249 -0.0005687571     18546.64
        9194      1.00013      1.97261 -0.0006191758     18548.38
        9195     1.000118     1.971994 -0.000589654      18548.6
        9196     1.000264     1.971312 -0.0006667337     18548.67
        9197     1.000434     1.970891 -0.0006730445     18549.76
        9198     1.000434     1.969943 -0.0006527795     18550.23
        9199     1.000468     1.969302 -0.0007031709     18551.91
        9200     1.000721     1.968701 -0.0006026671     18555.24
        9201     1.000891     1.968078  -0.00052008     18556.24
        9202     1.001088     1.967532 -0.0005755834      18557.5
        9203     1.001181     1.967222 -0.0006804505     18557.96
        9204     1.001347     1.966399 -0.0006500008     18560.15
        9205     1.001548     1.965356 -0.0007015423     18561.74
        9206     1.001475     1.964932 -0.0007052334      18562.5
        9207     1.001548     1.964416 -0.0006254909     18562.94
        9208        1.002     1.963578 -0.0007115627     18564.25
        9209     1.002243     1.962854 -0.000730774     18567.23
        9210     1.002422     1.962086 -0.0006631492     18570.34
        9211     1.002583     1.961493 -0.0007290856     18572.71
        9212     1.002492     1.960925 -0.000701725     18574.09
        9213     1.002766     1.959938 -0.0007320254     18575.94
        9214     1.002943     1.959279 -0.0007781172     18576.92
        9215     1.002934     1.958565 -0.0006841878     18577.51
        9216     1.002986     1.957813 -0.0007076878     18580.12
        9217     1.003089     1.957201 -0.000710858     18581.91
        9218     1.003306     1.956448 -0.0007779651     18582.54
        9219     1.003518     1.955721 -0.0007626146     18583.44
        9220     1.003643     1.954701 -0.0006823431     18584.65
        9221     1.003544     1.954151 -0.0006932076     18585.61
        9222     1.003257     1.953719 -0.0006950929     18587.18
        9223     1.002971     1.952948 -0.0007058642      18589.1
        9224     1.002668      1.95192 -0.0007789214     18590.77
        9225     1.002467     1.951327 -0.0007311426     18591.22
        9226     1.002455     1.950603 -0.0006240358     18592.89
        9227     1.002562     1.950024 -0.0007700201     18595.18
        9228     1.002643     1.949424 -0.0007642351     18597.54
        9229      1.00284     1.948247 -0.0007647679     18599.66
        9230      1.00279     1.947546 -0.0008296404     18600.29
        9231     1.002665     1.946965 -0.0006640332     18599.74
        9232     1.002548     1.946106 -0.0006941553     18601.24
        9233     1.002261     1.945591 -0.0006907274     18600.75
        9234     1.001916     1.944769 -0.0006315751     18600.07
        9235     1.001391     1.944202 -0.0007167038     18599.89
        9236     1.001098     1.943579 -0.0006840192     18602.09
        9237      1.00111     1.942724 -0.0007505676     18603.98
        9238     1.000846     1.942033 -0.0007869612      18604.8
        9239     1.000958       1.9412 -0.0007780744     18605.16
        9240     1.001228     1.940432 -0.0007591126     18607.08
        9241     1.001629     1.939612 -0.0006684822     18609.51
        9242     1.001657     1.938997 -0.0006251389     18610.11
        9243     1.001443     1.938526 -0.0006530448     18609.88
        9244      1.00118     1.937931 -0.0006775008     18608.87
        9245     1.001083        1.937 -0.0007372627     18607.39
        9246     1.001193     1.936287 -0.0007512867     18606.59
        9247     1.001402     1.935577 -0.0007044503     18604.07
        9248     1.001328     1.934926 -0.0007418427     18593.62
        9249      1.00191     1.934182 -0.000596249     18554.06
        9250     1.002908      1.93332 -0.0005847334     18431.61
        9251     1.000922     1.933192 -0.0005887735     18372.73
        9252     1.000546     1.932587 -0.0006984188     18493.22
        9253     1.001207     1.931827 -0.0006948549     18552.96
        9254     1.002252     1.930526 -0.0007700046     18476.42
        9255     1.001435     1.930412 -0.0007123041     18389.27
        9256     1.001378     1.929507 -0.0006001729     18489.76
        9257     1.001307     1.928977 -0.0007389425     18584.79
        9258     1.001047     1.928125 -0.0006570412     18629.24
        9259     1.000685     1.927456 -0.0007032483     18638.82
        9260     1.000484     1.926879 -0.000702472     18643.22
        9261     1.000165     1.926164 -0.0007388928     18645.49
        9262     1.000171     1.925315 -0.0007657928     18647.36
        9263      1.00034     1.924501 -0.0007061202     18649.28
        9264     1.000333     1.923816 -0.0006378984      18650.4
        9265      1.00025      1.92334 -0.0006044784     18651.65
        9266     1.000148     1.922764 -0.0005511898     18651.05
        9267     1.000152     1.922083 -0.0006368889     18650.79
        9268    0.9998741     1.921611 -0.0006597346      18650.6
        9269    0.9997377     1.920792 -0.0006570793     18653.34
        9270    0.9995386     1.920125 -0.0006482712     18654.33
        9271    0.9994395     1.919455 -0.0007050274     18655.15
        9272     0.999603     1.919018 -0.0006663144     18657.14
        9273     0.999849     1.917972 -0.0006310348     18658.84
        9274    0.9999086     1.917459 -0.0006983776     18660.71
        9275     1.000015      1.91693 -0.0005896188     18660.77
        9276     1.000049     1.916224 -0.0005468712      18660.5
        9277     1.000215     1.915614 -0.0006284762     18661.74
        9278     1.000615     1.915272 -0.0006251782     18664.84
        9279     1.000877     1.914417 -0.0006117594      18666.8
        9280     1.001054     1.913723 -0.0006664308     18666.69
        9281     1.001231     1.913167 -0.0006306084     18667.49
        9282     1.001409     1.912606 -0.000640463     18668.97
        9283     1.001634     1.911894 -0.0006211437     18668.23
        9284     1.001732     1.911162 -0.0006281926     18670.32
        9285     1.001248     1.910682 -0.0006109027     18671.45
        9286     1.000706     1.910094 -0.0005570492     18673.87
        9287    0.9999923      1.90945 -0.0006201662     18674.71
        9288    0.9995015     1.908933 -0.0006018986        18676
        9289    0.9993123     1.908202 -0.0006441033     18677.13
        9290      0.99953     1.907686 -0.0006186112     18677.23
        9291    0.9994728     1.906874 -0.0005164872     18677.35
        9292    0.9993984     1.906459 -0.0005580852     18678.34
        9293    0.9993451     1.906136 -0.0005391984     18679.44
        9294    0.9994577     1.905454 -0.0005649542     18680.94
        9295    0.9997008     1.904717 -0.0005609253     18683.07
        9296    0.9998374     1.904199 -0.0005896484     18683.23
        9297    0.9998274     1.903892 -0.0005289063      18684.2
        9298    0.9997711     1.903095 -0.0005790471     18685.49
        9299    0.9998313     1.902602 -0.0006322083     18687.14
        9300     1.000029     1.901883 -0.0005410627     18689.81
        9301    0.9999575     1.901363 -0.0006667078     18690.72
        9302    0.9996759     1.900931 -0.0005805814     18691.22
        9303     0.999931     1.899935 -0.0005795709     18691.79
        9304     1.000156     1.899561 -0.000591454     18691.11
        9305     1.000329     1.899045 -0.0005098572      18690.5
        9306     1.000604     1.898565 -0.0005067893     18691.38
        9307     1.000725     1.897895 -0.0005124951     18692.72
        9308     1.000897     1.897533 -0.0005795274     18694.07
        9309      1.00086     1.896995 -0.0005030945     18694.65
        9310     1.000655     1.896247 -0.0005855376     18695.11
        9311     1.000391     1.895883 -0.0006384745     18695.07
        9312     1.000592     1.895191 -0.0005440489     18695.66
        9313     1.001054     1.894441 -0.0006186773     18696.76
        9314     1.001132     1.894071  -0.00063774     18698.64
        9315      1.00087     1.893408 -0.0005694155     18698.81
        9316     1.000485      1.89264 -0.0005900364     18699.75
        9317     1.000277     1.892163 -0.0006081545     18701.85
        9318     1.000244      1.89171 -0.0005134755     18704.97
        9319     1.000245     1.890976 -0.0005568489     18707.32
        9320     1.000337     1.890586 -0.0005804269     18706.16
        9321     1.000303     1.889936 -0.0005791076     18704.37
        9322     1.000278     1.889389 -0.0005818583     18704.04
        9323     1.000281     1.888659 -0.0005846278     18705.07
        9324     1.000229     1.888259 -0.0006374153     18705.16
        9325      1.00046     1.887597 -0.0006321251      18706.3
        9326      1.00061     1.886839 -0.0006113054     18708.88
        9327     1.000818     1.886131 -0.0006213701     18710.76
        9328     1.001072     1.885814 -0.0005437732     18711.96
        9329     1.000974     1.885112 -0.0005522848     18712.49
        9330     1.001118     1.884664 -0.000582613     18714.84
        9331     1.001511     1.883922 -0.0006094244     18715.08
        9332     1.001744     1.883483 -0.0005983609     18713.83
        9333     1.002261     1.882674 -0.0005276155     18713.67
        9334     1.002491     1.882271 -0.0006349404     18713.97
        9335     1.002251     1.881811 -0.0005748071     18716.53
        9336     1.001793     1.880944 -0.0005617763     18718.99
        9337     1.001557     1.880375 -0.0006888444     18721.55
        9338      1.00129     1.880023 -0.000568762      18723.8
        9339     1.001301     1.879056 -0.0005993578      18723.2
        9340     1.001352     1.878669 -0.0006874022     18721.13
        9341     1.001853     1.877978 -0.0005722809      18721.3
        9342     1.002183     1.877274 -0.0006319767     18721.14
        9343     1.002683     1.876767 -0.0006657127     18722.41
        9344     1.002948     1.876141 -0.0005840154     18723.57
        9345     1.003093     1.875315 -0.0006357492     18723.35
        9346     1.003225     1.874938 -0.0005363271     18724.39
        9347     1.003078     1.874224 -0.000511253     18725.87
        9348     1.003033     1.873995 -0.0005954706     18727.01
        9349     1.003343      1.87327 -0.0005551364     18725.74
        9350     1.003564     1.872556 -0.0006754515        18721
        9351     1.003725     1.872003 -0.0006209543     18718.17
        9352     1.003535     1.871294 -0.0006262932     18720.94
        9353      1.00318     1.870786 -0.0006539324     18724.06
        9354     1.002879     1.870051 -0.0006078148     18725.19
        9355       1.0024     1.869387   -0.0006076     18727.76
        9356     1.002066     1.868862 -0.000599664     18730.56
        9357     1.001942     1.868355 -0.0006249072      18734.4
        9358     1.001857     1.867652 -0.000606154     18735.84
        9359     1.001701     1.866888 -0.0006337326     18735.77
        9360     1.001448     1.866438 -0.0006388936     18733.61
        9361     1.001298     1.865821 -0.0006334036     18731.64
        9362     1.001292     1.865096 -0.0006632243     18728.56
        9363     1.001424     1.864354 -0.0006260085     18729.19
        9364     1.001729     1.863785 -0.0005625104     18731.64
        9365     1.002085     1.863317 -0.0005345603     18732.58
        9366     1.002039     1.862846 -0.0005629407     18732.82
        9367     1.001875     1.862216 -0.0006009587     18737.03
        9368     1.001514     1.861533 -0.0006328931     18741.07
        9369     1.001368     1.860913 -0.0006453399     18743.04
        9370     1.001626     1.860315 -0.0005897778      18743.9
        9371      1.00174     1.859635 -0.0006087675     18745.43
        9372     1.001739     1.859174 -0.0006265471     18747.09
        9373     1.001662     1.858478 -0.0005954456     18748.15
        9374     1.001358     1.857809 -0.0006129383     18746.34
        9375     1.001314     1.857253 -0.0005931576     18745.08
        9376     1.001314     1.856722 -0.0005479277     18745.83
        9377     1.001458     1.856105 -0.0005901924     18747.61
        9378     1.001544     1.855617 -0.0006581341     18748.19
        9379     1.001874     1.854892 -0.0006239304     18750.88
        9380     1.001811      1.85409 -0.0006478601     18751.31
        9381     1.001966     1.853609 -0.0005351611     18751.42
        9382     1.001881     1.853026 -0.0005704756     18752.49
        9383     1.001652     1.852751 -0.000597162     18753.38
        9384     1.001449     1.851808 -0.0005765995     18753.83
        9385     1.001387     1.851221 -0.0006901229     18755.55
        9386     1.001567     1.850719 -0.0005843268     18756.67
        9387     1.001645     1.849991  -0.00058939     18757.28
        9388     1.001663      1.84947 -0.000668989     18757.68
        9389     1.001708     1.848863 -0.0005979535     18757.79
        9390     1.001833     1.848043 -0.0006273113     18756.36
        9391     1.001626     1.847599 -0.0006142934     18755.39
        9392     1.001476     1.846961 -0.0005619276     18755.47
        9393     1.000997     1.846406 -0.0005886017     18754.17
        9394     1.000889     1.845795 -0.0006224382     18754.17
        9395     1.000481     1.845245 -0.0006025911      18754.8
        9396    0.9999096     1.844471 -0.0006244886      18756.7
        9397    0.9994381     1.843996 -0.0006184446     18756.69
        9398    0.9994612     1.843298 -0.0005853611     18758.25
        9399    0.9996029     1.842771  -0.00065246     18759.79
        9400    0.9995788      1.84213 -0.0006252426     18759.84
        9401    0.9996906     1.841386 -0.0006838609     18759.55
        9402    0.9999874     1.840797 -0.000658423     18759.15
        9403     1.000236     1.840035  -0.00061466     18761.39
        9404     1.000214     1.839496 -0.0005725252     18762.57
        9405      1.00019     1.838927 -0.0005410614     18762.53
        9406     1.000479     1.838506 -0.0005941844     18764.03
        9407     1.000838     1.837871 -0.0006013837     18765.24
        9408     1.001214      1.83712 -0.0006207402     18764.51
        9409     1.001343     1.836521 -0.0006491373     18763.59
        9410     1.001233     1.836023 -0.0005942565     18765.48
        9411      1.00093     1.835275 -0.0005569739     18766.45
        9412      1.00064     1.834742 -0.0006184524     18767.05
        9413     1.000676     1.834294 -0.0006353966     18768.89
        9414      1.00052      1.83355 -0.0006485496     18769.28
        9415     1.000484     1.832733 -0.0006494051     18769.47
        9416     1.000307     1.832148 -0.0006407511     18770.69
        9417    0.9998874     1.831696 -0.000621747     18769.15
        9418    0.9997203     1.830987 -0.0006221517     18767.11
        9419    0.9996541     1.830246 -0.0006145989     18766.48
        9420    0.9994949      1.82966 -0.0005978447     18766.24
        9421    0.9992351     1.829238 -0.0005805233     18765.41
        9422     0.998967     1.828595 -0.000559706     18764.76
        9423    0.9988538     1.827924 -0.0006480537     18764.23
        9424    0.9986517     1.827421 -0.0006116061     18764.25
        9425     0.998595     1.826645 -0.0006659794     18764.13
        9426    0.9988458     1.826149 -0.0006493439     18763.97
        9427    0.9986212      1.82526 -0.0005985863        18764
        9428    0.9981012     1.824823 -0.0006320292     18764.78
        9429    0.9978249     1.824251 -0.0005219719     18763.39
        9430       0.9978     1.823621 -0.0005831165     18764.02
        9431    0.9975243     1.823172 -0.0006427761     18763.55
        9432    0.9974005     1.822491 -0.0006273035     18764.75
        9433    0.9973164      1.82168 -0.0006288304     18765.73
        9434    0.9971369     1.821112 -0.0006491771     18766.09
        9435    0.9971287     1.820657 -0.0005679267     18765.37
        9436    0.9971687     1.819894 -0.000572627     18766.09
        9437    0.9972448     1.819408 -0.0005974217     18765.93
        9438     0.997498     1.818821 -0.0005748263     18765.71
        9439    0.9978081     1.818267 -0.0005941422     18765.63
        9440    0.9980151     1.817595 -0.0006071747     18765.27
        9441    0.9980356     1.817032 -0.0006098078     18765.86
        9442    0.9981328     1.816392 -0.0005863629     18765.84
        9443    0.9981031     1.815828 -0.0006309216     18764.66
        9444    0.9981189      1.81525 -0.000602398     18764.21
        9445     0.998168     1.814508 -0.0006184077     18762.49
        9446    0.9982724     1.813983 -0.0005856615     18763.72
        9447    0.9984112     1.813354 -0.0005620084     18764.51
        9448    0.9985352     1.812907 -0.0006097002      18765.3
        9449    0.9987349      1.81226 -0.0005865641     18765.09
        9450    0.9990331     1.811544 -0.0006116127     18764.04
        9451    0.9991343     1.811008 -0.0005601402     18763.11
        9452    0.9989374      1.81046 -0.0005579102     18763.61
        9453    0.9987154     1.810019 -0.0005489063     18762.14
        9454    0.9987762     1.809312 -0.0005904416     18762.27
        9455    0.9989501     1.808812 -0.0006121927     18761.97
        9456    0.9992466     1.808099 -0.0005910741     18761.81
        9457    0.9996422     1.807571 -0.0006189724     18761.37
        9458    0.9998046     1.806948 -0.0005978847     18759.63
        9459    0.9995451     1.806336 -0.0005994227     18758.52
        9460    0.9994147     1.805707 -0.0005931739     18760.09
        9461    0.9993426     1.805173 -0.0005817855     18761.25
        9462    0.9993929     1.804575 -0.0005311626     18762.75
        9463    0.9992282     1.804009 -0.0005630106     18763.82
        9464    0.9988297     1.803582 -0.0005430739     18763.95
        9465    0.9982906     1.802921 -0.0005524665      18764.4
        9466    0.9977905     1.802403 -0.0006072629     18765.96
        9467    0.9974767     1.801799 -0.0005310917     18766.16
        9468    0.9971236     1.801153 -0.0005804952     18765.65
        9469    0.9969531     1.800796 -0.0005660051     18765.27
        9470    0.9970097     1.800081  -0.00052858     18765.08
        9471    0.9971623     1.799535 -0.0005911515     18764.57
        9472    0.9972632     1.799039 -0.0005097413     18763.86
        9473    0.9970675     1.798432  -0.00058283     18761.63
        9474    0.9968167     1.798042 -0.0005897568     18760.77
        9475    0.9965227     1.797204 -0.0005076418     18759.27
        9476    0.9962737      1.79668 -0.0005398268     18758.62
        9477    0.9961225     1.796401 -0.0005473925     18758.11
        9478    0.9961059     1.795883 -0.0005045789     18757.43
        9479    0.9965774     1.795015 -0.0006113438      18757.8
        9480    0.9968923     1.794662 -0.0005621224      18757.5
        9481    0.9968007     1.793956 -0.0005251432     18756.79
        9482    0.9965944     1.793634 -0.0005849358      18755.9
        9483    0.9964233     1.792914 -0.0004990442     18752.62
        9484    0.9963772     1.792322 -0.0006087691     18743.44
        9485    0.9962583      1.79196 -0.0005837141     18722.81
        9486    0.9962507     1.791199 -0.0005794511     18715.13
        9487    0.9963774     1.790579 -0.000562829     18721.97
        9488    0.9964785     1.790004 -0.0006067759     18731.13
        9489    0.9962725     1.789708 -0.0005679447      18739.8
        9490    0.9961053     1.788772 -0.0005663236     18742.07
        9491    0.9960252     1.788307 -0.0006241186     18731.88
        9492    0.9960153     1.787739 -0.0005097493      18713.6
        9493     0.996196     1.787212 -0.000548344     18712.84
        9494    0.9963139     1.786733 -0.000549568     18720.06
        9495    0.9962455     1.786114 -0.0005443692     18731.63
        9496    0.9960619     1.785541 -0.0005879172     18739.84
        9497    0.9958593     1.785034 -0.0005148232      18741.3
        9498    0.9954628     1.784381 -0.0005653154     18740.36
        9499    0.9952657     1.784055 -0.0005796618     18740.28
        9500    0.9952657     1.784055 -0.0005796618     18740.28
