# This file has been produced by extranormal (v 1.0.1 - February 23, 2017)
# O. Roudenko - Synchrotron SOLEIL. Covered by GPL licence.
#Data from HDF File: /nfs/ruche-rock/rock-soleil/com-rock/2022/Projets/20220725_Gilles/op3_cell3_cell4/op3_cell4_pos1_dq1/op3_cell4_pos1_dq1_0021/op3_cell4_pos1_dq1_0021_08234.nxs to op3_cell4_pos1_dq1_0021_08257.nxs
#Time at start=2022-07-27 14:00:18.316
#Time from start (seconds)=64.7701463594
#Sample temperature (C)=nan
# Normalization -------------
# pivot spectrum: LNO_pristine_av1100_00001.txt
# E0=8332.88   Eshift=-0.13360597333
# E0_pivot = 8349.6
# pre-edge params: from E0_pivot-240.0 to E0_pivot-50.0
# pre-edge range: [8109.6, 8299.6]
# post-edge params: from E0_pivot+70.0 to E0_pivot+1155.0
# post-edge range: [8419.6, 9500.0]
# I jump at E0_pivot = 0.800806664209
# shifted energy	normalized	reference	ref.derivative	I0
        8060  0.001625521     1.040001 -0.0004687392     14941.29
        8065  0.001469812     1.037654 -0.0004917935     14961.18
        8070  0.000942434     1.035079 -0.0004489458     14985.87
        8075 -0.0001151615     1.033013 -0.0004475076     15008.95
        8080  0.001019126     1.031022 -0.0004354521     15031.58
        8085 0.0009816547     1.028704 -0.0004469895     15049.86
        8090 0.0003921959      1.02637 -0.0004611407     15072.55
        8095 0.0005398526     1.024073 -0.0004613756     15096.73
        8100 0.0001916023     1.021799 -0.0004462308     15118.81
        8105 0.0004110757     1.019476 -0.0004402068     15141.18
        8110 -0.0006219513     1.017445 -0.000431198     15160.55
        8115 0.0006654994     1.015269 -0.0004262294     15180.08
        8120 0.0008359001     1.013175 -0.0004209699     15199.99
        8125 -0.0001188445     1.010952 -0.0004185545     15221.58
        8130 -3.593019e-06     1.009026 -0.0004164351     15243.03
        8135 0.0006804922     1.006898 -0.0003991542     15264.57
        8140  0.001339566     1.004847 -0.0004086306      15284.2
        8145 -0.000314993     1.002969 -0.0004158175     15305.73
        8150 -7.967202e-05     1.000853 -0.0004110174     15323.44
        8155 -8.557586e-06    0.9985816 -0.0004188587     15345.91
        8160 0.0004554651    0.9966264 -0.000430351     15364.95
        8165  0.001604999    0.9945916 -0.0004217924     15393.67
        8170  0.001063904     0.992246  -0.00043436     15411.05
        8175 -0.0001183778    0.9901458 -0.0004295265     15433.68
        8180  0.000782622    0.9879392 -0.0004154769     15453.48
        8185 -0.001297688    0.9860011 -0.0004206586     15472.47
        8190 -0.001156768    0.9839365 -0.000405366     15495.61
        8195 -0.0008471417    0.9817326 -0.0004089961      15518.8
        8200 -0.0001469423    0.9798319 -0.0004157379     15534.22
        8205 -0.001544809    0.9778211 -0.0004134828      15558.8
        8210 -0.001402829    0.9756217 -0.0004065053     15574.82
        8215 -0.001279524    0.9734629 -0.000407384     15596.29
        8220 -0.001655621    0.9717017 -0.0004090726     15617.89
        8225 -0.0005080003    0.9696734 -0.0004045223     15640.53
        8230 5.963328e-05    0.9674403 -0.000412714     15661.09
        8235 -0.0007630852    0.9653725 -0.0003999913     15678.14
        8240 -0.0007716676    0.9634475 -0.0003881537     15700.82
        8245 0.0005325449    0.9616736 -0.0003833202     15721.49
        8250 0.0001744852    0.9596772 -0.0003667128     15740.09
        8255 -0.0002397549    0.9577061 -0.0003630087     15758.67
        8260 0.0001249022    0.9561132 -0.0003559648     15778.74
        8265  0.000340479    0.9544134 -0.0003427358     15799.08
        8270   0.00208384    0.9525579 -0.0003470782     15820.33
        8275 0.0001330202    0.9508514 -0.0003336257     15836.17
        8280 0.0002174545    0.9491716 -0.0003277651     15855.71
        8285 0.0004183775    0.9477409 -0.0003092832     15867.67
        8290 0.0007216469    0.9460026 -0.0002912355     15880.72
        8295 0.0007864539    0.9446657 -0.000287703     15891.12
        8300  0.004677444    0.9433916 -0.0002281809     15819.87
      8300.2  0.004712301    0.9434796 -9.713113e-05     15808.88
      8300.4  0.004670466    0.9434814 -2.575527e-05     15798.74
      8300.6  0.004648076    0.9433906 -0.0001614784     15790.32
      8300.8  0.004661057     0.943371 -0.0002284817     15784.38
        8301  0.004677132    0.9433504 -7.528191e-05     15780.48
      8301.2  0.004607512    0.9432986 -4.484181e-05     15777.84
      8301.4  0.004547623    0.9433304 -0.0001916373     15776.32
      8301.6  0.004493736    0.9433351 -0.0002989094      15775.9
      8301.8  0.004446733    0.9431971 -0.0004475948     15775.67
        8302  0.004397707    0.9430595 -0.0006019245     15775.71
      8302.2  0.004308186    0.9429723  -0.00058296     15775.65
      8302.4  0.004282127    0.9428536 -0.0004709619     15775.13
      8302.6  0.004295069    0.9427307 -0.000414996     15773.66
      8302.8  0.004351376    0.9426827 -0.0003258178     15771.48
        8303  0.004376191    0.9426403 -0.0001357235     15768.19
      8303.2  0.004410588    0.9425929 -0.0001777001     15763.54
      8303.4  0.004507576    0.9426221 -0.0001967124     15758.32
      8303.6  0.004655868    0.9425406 -8.67859e-05     15750.93
      8303.8  0.004802428    0.9424829 -0.0001540375     15741.31
        8304  0.004912233    0.9425235 4.317881e-05     15729.03
      8304.2  0.005154492    0.9424989  0.000136321     15713.38
      8304.4   0.00548813    0.9425751 -0.0001009094     15693.01
      8304.6  0.005935462     0.942592 -0.0003147873     15665.62
      8304.8  0.006419834    0.9424428 -0.0006015171     15629.19
        8305  0.007031516    0.9422471 -0.0007952027     15581.56
      8305.2  0.007742577    0.9420939 -0.0008130459     15521.52
      8305.4  0.008438406    0.9419558 -0.0005445811     15449.82
      8305.6  0.008909533    0.9417923 -0.0001514013     15368.03
      8305.8  0.009008159    0.9418114 0.0001826757     15285.88
        8306  0.008787909    0.9419728 0.0005863016     15211.72
      8306.2  0.008280839     0.942102 0.0006981877     15152.27
      8306.4  0.007503492    0.9422614 0.0007300501     15111.92
      8306.6  0.006594048    0.9423699 0.0006135146     15093.28
      8306.8  0.005702938    0.9425568 0.0004888186     15097.32
        8307  0.004965403    0.9425928 0.0004798283      15122.7
      8307.2  0.004449556    0.9426524 0.0004023612     15162.58
      8307.4  0.004048887    0.9427538 0.0004378976     15210.17
      8307.6  0.003713969    0.9428787  0.000376324     15263.53
      8307.8   0.00345706    0.9429431 0.0003433848     15320.05
        8308  0.003190574    0.9429535 0.0004230703     15377.87
      8308.2  0.002927128    0.9430285 0.0004791213     15436.51
      8308.4  0.002690252    0.9432172 0.0004996084     15496.17
      8308.6  0.002539125    0.9433264 0.0002546356     15557.76
      8308.8  0.002546754    0.9433532 -0.0002283904     15618.96
        8309  0.002632829    0.9432322 -0.0006329785     15675.99
      8309.2  0.002934496    0.9430345 -0.0009739288     15724.61
      8309.4   0.00342964      0.94282 -0.001042767     15763.01
      8309.6  0.004045889     0.942574 -0.0008934239     15789.84
      8309.8  0.004641894     0.942398 -0.0006431766     15803.04
        8310  0.005062186    0.9423197  -0.00040034     15804.94
      8310.2  0.005225832    0.9423055 -0.0001995214     15799.88
      8310.4    0.0053348    0.9422538 -2.580402e-06     15793.22
      8310.6  0.005437196    0.9422384 8.629114e-05     15788.25
      8310.8  0.005367217    0.9423177 0.0001525377     15785.79
        8311   0.00507678    0.9423745 -3.772758e-05     15786.75
      8311.2  0.005051973    0.9423758 -0.0003861778     15793.45
      8311.4  0.005352305    0.9422082 -0.0005386592     15800.32
      8311.6  0.005798141    0.9420087 -0.0005178573     15801.79
      8311.8  0.006118109    0.9419436 -0.0001661701     15794.64
        8312  0.006365184    0.9419615 0.0003429511     15782.51
      8312.2  0.006481472    0.9420753 0.0007115705     15768.81
      8312.4       0.0066    0.9422831 0.0008752876     15755.79
      8312.6  0.006576738    0.9425128 0.0007237411        15744
      8312.8  0.006498253    0.9426617  0.000313537     15735.11
        8313  0.006676802    0.9426543 -0.0001105463      15728.5
      8313.2  0.007147028    0.9425339 -0.000587554     15717.37
      8313.4  0.007812168    0.9424244 -0.0008297987     15694.62
      8313.6  0.008644825    0.9421917 -0.0009470049     15657.38
      8313.8  0.009559275    0.9419904 -0.0009618429     15601.72
        8314   0.01045043    0.9417763 -0.0005980464     15527.44
      8314.2   0.01108611    0.9416549 -0.0001287607     15442.21
      8314.4   0.01129853    0.9417133  0.000510042     15355.16
      8314.6   0.01112196    0.9418874  0.001155906     15276.21
      8314.8   0.01057906    0.9421843  0.001518458     15213.49
        8315  0.009902891    0.9425797  0.001651502     15172.04
      8315.2  0.009096668     0.942928  0.001501667     15155.44
      8315.4  0.008314824    0.9432086  0.001173709     15164.28
      8315.6  0.007811908    0.9433857   0.00100614     15192.52
      8315.8  0.007466563    0.9435186 0.0008500384     15232.59
        8316  0.007321018    0.9437329 0.0006926505     15278.24
      8316.2  0.007234359    0.9438887  0.000711306     15323.87
      8316.4  0.007190408    0.9439398 0.0005528156     15367.97
      8316.6  0.007134472    0.9440877 0.0005026323     15410.51
      8316.8   0.00706709    0.9441752 0.0006313635     15451.56
        8317  0.007006197    0.9442908 0.0004952182     15492.76
      8317.2  0.006929872    0.9444449 0.0003509307     15534.11
      8317.4  0.006832819    0.9444838 0.0002083475      15574.8
      8317.6   0.00678485    0.9444559 4.233464e-05     15615.25
      8317.8  0.006737091    0.9444574 -1.922486e-05     15655.57
        8318  0.006799447    0.9444788 3.446778e-05     15694.82
      8318.2  0.006942287    0.9444685 0.0001352054     15730.67
      8318.4  0.007079175    0.9444835   0.00025961     15762.17
      8318.6  0.007294595    0.9445656 0.0005156368      15789.5
      8318.8  0.007433114    0.9446864 0.0005983496      15812.7
        8319  0.007479258     0.944881  0.000576161     15832.12
      8319.2  0.007524188    0.9449622 0.0005947991     15848.33
      8319.4  0.007605389    0.9450265 0.0005705135     15861.78
      8319.6  0.007613581    0.9451623 0.0006669419     15872.92
      8319.8   0.00761799    0.9453374 0.0007012247     15882.83
        8320  0.007719749    0.9454957  0.000729347     15891.81
      8320.2  0.007801488    0.9455875 0.0006488542     15899.79
      8320.4  0.007870372    0.9457458 0.0007099219     15906.95
      8320.6  0.008042033    0.9458565 0.0009057623     15913.87
      8320.8  0.008008446    0.9460637 0.0009615795     15919.27
        8321  0.007995557    0.9463121  0.001114752     15924.47
      8321.2  0.007982074     0.946515  0.001086785      15929.3
      8321.4  0.008017445    0.9467483  0.001045859     15934.23
      8321.6  0.008084279    0.9469331  0.001248497     15939.02
      8321.8  0.008183159    0.9471488  0.001248626     15944.36
        8322  0.008256573    0.9475138  0.001294305     15949.72
      8322.2  0.008370731    0.9477472  0.001445112     15954.94
      8322.4  0.008508572    0.9479685  0.001443028     15960.47
      8322.6  0.008563554    0.9483049  0.001561563     15965.83
      8322.8  0.008683883    0.9486682  0.001690766     15972.05
        8323  0.008781523    0.9489964  0.001663787     15978.65
      8323.2  0.008841627    0.9493212  0.001550441     15985.77
      8323.4  0.008944298    0.9496359  0.001482482     15993.03
      8323.6  0.009094908    0.9499086  0.001500926     16000.19
      8323.8  0.009311625    0.9501824  0.001627531     16007.49
        8324  0.009477641    0.9505219  0.001809813     16014.44
      8324.2  0.009684118     0.950938  0.001932267     16021.58
      8324.4  0.009886137    0.9513564  0.002087757     16027.65
      8324.6  0.009988065    0.9517282  0.002171727     16032.07
      8324.8   0.01006356    0.9521921  0.002274901     16035.34
        8325   0.01020934    0.9526753  0.002377749     16038.44
      8325.2   0.01039589    0.9531764  0.002519006     16041.01
      8325.4   0.01056264    0.9536304  0.002671142     16042.62
      8325.6   0.01076346    0.9542073  0.002950009     16044.38
      8325.8   0.01100279    0.9548122  0.003383287     16045.96
        8326   0.01123348    0.9555364   0.00370847     16047.12
      8326.2   0.01143993    0.9563371  0.004169868     16047.89
      8326.4   0.01178108    0.9571741  0.004478195     16049.32
      8326.6   0.01216143    0.9581481  0.004778512     16050.77
      8326.8   0.01250024    0.9591189  0.004988301     16051.94
        8327   0.01279714    0.9601599  0.004940519     16052.93
      8327.2   0.01312204    0.9611647  0.005039041     16053.81
      8327.4   0.01344116    0.9621006  0.005242377     16054.54
      8327.6   0.01374607    0.9631502  0.005655334     16055.54
      8327.8   0.01402254    0.9643538  0.006204802     16056.64
        8328   0.01421899     0.965689  0.006835317     16057.51
      8328.2   0.01440294    0.9670644  0.007395164     16058.59
      8328.4   0.01459695    0.9686184  0.007807789     16059.83
      8328.6     0.014756    0.9702699  0.008433041     16060.77
      8328.8   0.01503706    0.9719352  0.009283741      16061.8
        8329   0.01529932    0.9738108    0.0103214     16062.76
      8329.2   0.01548939    0.9760454   0.01167296     16063.61
      8329.4   0.01570931     0.978527   0.01318902     16064.66
      8329.6   0.01591781    0.9812736   0.01474569     16065.42
      8329.8   0.01616745    0.9843621   0.01667058     16066.19
        8330   0.01646448     0.987842   0.01921313      16066.9
      8330.2   0.01684584    0.9918635   0.02249676     16068.12
      8330.4   0.01727223    0.9966441   0.02645506     16068.81
      8330.6    0.0176753     1.002359   0.03139823     16069.19
      8330.8   0.01824799     1.009006   0.03772848     16070.28
        8331   0.01880957     1.016982   0.04567486     16071.21
      8331.2   0.01947826     1.026827   0.05566121     16071.99
      8331.4   0.02022838     1.038899   0.06730519     16072.42
      8331.6    0.0210895     1.053535    0.0799426     16072.72
      8331.8    0.0221696     1.070826   0.09329514     16073.01
        8332   0.02338569     1.090781    0.1067778     16073.22
      8332.2   0.02485151     1.113535    0.1193568     16074.09
      8332.4   0.02650129     1.138957    0.1302532     16074.34
      8332.6   0.02836855     1.166312     0.138731     16074.45
      8332.8   0.03056065     1.194984    0.1442566     16074.95
        8333   0.03303969      1.22452    0.1472929     16075.02
      8333.2   0.03570285     1.254362    0.1481099     16074.48
      8333.4   0.03853146     1.284146    0.1463878     16074.32
      8333.6    0.0413922     1.313471    0.1430779     16074.19
      8333.8    0.0441868     1.341631    0.1387158     16073.67
        8334   0.04690812     1.368825    0.1335862     16073.32
      8334.2   0.04939139     1.395119    0.1273957     16073.01
      8334.4   0.05147484      1.42034    0.1198724     16072.82
      8334.6    0.0530885     1.443547    0.1114102     16073.01
      8334.8   0.05417532     1.464723    0.1024627     16073.36
        8335   0.05470797     1.484247     0.093988     16073.46
      8335.2   0.05470036     1.502311   0.08595837     16073.16
      8335.4   0.05439689     1.518737   0.07779359     16072.94
      8335.6   0.05404324     1.533489   0.06951114     16073.36
      8335.8   0.05363023     1.546482   0.06208513     16073.81
        8336   0.05333018     1.557919   0.05590785     16074.38
      8336.2   0.05313831     1.568406   0.05125951     16074.72
      8336.4   0.05316939     1.578216   0.04776557     16075.56
      8336.6   0.05340974     1.587489   0.04474849     16076.49
      8336.8   0.05387923     1.596132   0.04231063     16077.75
        8337    0.0545871     1.604204   0.04071531     16078.92
      8337.2   0.05549058     1.612064   0.04063519     16080.26
      8337.4   0.05650407     1.620061   0.04215047     16081.42
      8337.6   0.05763705      1.62864   0.04470847     16082.32
      8337.8   0.05901858     1.637925   0.04809008     16083.73
        8338   0.06055968     1.647831    0.0518439     16085.07
      8338.2   0.06223755     1.658533   0.05542097     16085.88
      8338.4   0.06418955     1.670115   0.05874504     16086.87
      8338.6   0.06638645     1.682262   0.06144615     16088.18
      8338.8     0.068728     1.694827   0.06320001     16089.18
        8339   0.07127549      1.70769   0.06429011     16090.34
      8339.2   0.07404533     1.720675   0.06458389      16091.3
      8339.4    0.0770416     1.733694   0.06408821     16092.11
      8339.6   0.08032926     1.746494   0.06283987     16093.16
      8339.8   0.08370202     1.758961   0.06094755     16093.17
        8340    0.0874227     1.770947   0.05938787     16093.62
      8340.2   0.09155619     1.782452   0.05841473     16094.45
      8340.4   0.09617067     1.794004   0.05777606     16094.79
      8340.6    0.1013816     1.805693   0.05759061     16095.19
      8340.8    0.1070952     1.817168   0.05733992     16095.65
        8341    0.1133627     1.828524   0.05740634     16096.43
      8341.2    0.1203212     1.839876    0.0584991     16096.93
      8341.4    0.1282059     1.851618   0.06134998      16097.1
      8341.6    0.1370601     1.863967   0.06502735     16097.57
      8341.8    0.1473305     1.877604   0.06884573      16097.9
        8342    0.1587777     1.891898   0.07295256        16099
      8342.2    0.1711134     1.906694   0.07730648     16099.71
      8342.4     0.184618     1.922329   0.08249932     16100.34
      8342.6    0.2000154     1.939449   0.08799134      16101.2
      8342.8      0.21676     1.957898    0.0937278     16101.96
        8343    0.2343285     1.977088    0.0989043     16102.54
      8343.2    0.2527334     1.997312    0.1033566     16103.02
      8343.4    0.2717719     2.018573    0.1077315     16103.74
      8343.6    0.2911647     2.040583    0.1116896     16104.08
      8343.8     0.310867     2.063273    0.1150244     16104.25
        8344    0.3306026     2.086663    0.1178109     16104.89
      8344.2    0.3503117     2.110592     0.120678     16105.64
      8344.4    0.3697998     2.134832    0.1234338     16105.94
      8344.6    0.3894013     2.159815    0.1260836     16106.25
      8344.8    0.4089967      2.18541    0.1277953     16106.51
        8345    0.4285773     2.211459    0.1294326     16106.78
      8345.2    0.4479709     2.237068    0.1313253     16107.38
      8345.4    0.4679356     2.263361    0.1330203     16108.24
      8345.6    0.4885888     2.290471    0.1342002     16108.91
      8345.8    0.5099389     2.317875    0.1343235     16110.27
        8346    0.5313142     2.344428    0.1330769     16111.24
      8346.2    0.5529038      2.37082    0.1315575     16111.97
      8346.4    0.5749083     2.396932    0.1305255     16113.25
      8346.6    0.5977688     2.423121    0.1287484     16114.12
      8346.8    0.6212519     2.448848    0.1251195     16115.29
        8347    0.6451185     2.473819    0.1200823     16115.99
      8347.2    0.6687769     2.497028    0.1142941      16116.8
      8347.4    0.6925721     2.519187       0.1086     16117.53
      8347.6    0.7167501     2.540284    0.1027094     16118.19
      8347.8     0.741755     2.560699   0.09541648     16118.45
        8348    0.7671849     2.579195   0.08725957      16118.6
      8348.2    0.7925903      2.59552   0.07701763     16119.23
      8348.4    0.8177842     2.610091   0.06703801     16119.21
      8348.6     0.842727     2.622313   0.05794076     16119.23
      8348.8    0.8680048     2.632826   0.04911141     16119.52
        8349    0.8937133     2.641873   0.04092603     16119.39
      8349.2    0.9196901      2.64938   0.03344606     16119.03
      8349.4    0.9459277     2.655054   0.02597562     16118.87
      8349.6    0.9727469     2.659582   0.01962491     16118.81
      8349.8     1.000255     2.662654   0.01450708     16118.43
        8350     1.028533      2.66508  0.008891167     16118.35
      8350.2     1.057565     2.666659  0.004628771     16118.32
      8350.4     1.087416     2.666695 0.0006540229     16118.76
      8350.6     1.118333     2.666357 -0.003420074     16119.07
      8350.8     1.150001     2.665604 -0.005594688     16119.14
        8351     1.182289     2.663923 -0.008015307      16119.7
      8351.2     1.214578      2.66222  -0.01066003     16120.23
      8351.4     1.246769     2.659944  -0.01219362     16120.59
      8351.6     1.279072     2.657076  -0.01436597     16120.44
      8351.8     1.311891     2.654168  -0.01549539     16120.31
        8352      1.34468     2.650727  -0.01620917     16120.56
      8352.2     1.376749     2.647548  -0.01627084      16120.7
      8352.4     1.407724     2.644108  -0.01502751     16121.28
      8352.6     1.437038     2.641152  -0.01358436     16121.23
      8352.8     1.465444     2.638705  -0.01222142     16121.51
        8353     1.492588     2.636681  -0.00974239     16122.25
      8353.2     1.517684     2.634331 -0.006358476     16122.67
      8353.4     1.539137     2.633358 -0.003605199     16122.87
      8353.6     1.556808     2.633618 0.0006176163     16123.14
      8353.8     1.570709     2.633796  0.005386528     16123.56
        8354     1.580019     2.634825  0.008629007     16123.86
      8354.2     1.584237     2.637667   0.01415155     16124.34
      8354.4     1.583297     2.640521   0.01981257     16124.96
      8354.6     1.576957     2.645118   0.02323398     16125.58
      8354.8     1.565263     2.650675   0.02798474     16126.48
        8355     1.549128     2.656254   0.03125663     16127.71
      8355.2     1.529021     2.662909   0.03426699     16128.91
      8355.4     1.505221     2.670123   0.03755899     16129.54
      8355.6      1.47874     2.678089   0.03924974     16130.22
      8355.8     1.450321     2.686301   0.04019977     16130.59
        8356     1.420159     2.694309   0.04089053     16131.54
      8356.2     1.389407     2.702283   0.03968071     16132.33
      8356.4     1.358897     2.710801   0.03835126     16132.97
      8356.6     1.329038     2.718046    0.0364592     16133.99
      8356.8     1.299877      2.72499    0.0328044     16134.97
        8357     1.271633      2.73145   0.03006819     16135.69
      8357.2      1.24452     2.737045   0.02627864     16136.65
      8357.4     1.219847       2.7421   0.02143544     16137.71
      8357.6     1.197443     2.746013   0.01678986     16138.52
      8357.8      1.17712     2.748598   0.01134464     16139.13
        8358     1.158432     2.750477  0.006426137     16139.96
      8358.2     1.141281     2.751176  0.002183879     16140.39
      8358.4     1.126033     2.751154 -0.002732362     16141.43
      8358.6     1.113016     2.750346 -0.007150177     16142.55
      8358.8     1.101762     2.748291  -0.01041024     16143.64
        8359     1.091843     2.745456  -0.01385877      16144.7
      8359.2     1.083023     2.742825  -0.01651128     16145.68
      8359.4     1.075449     2.739259  -0.01848095     16146.04
      8359.6     1.069117     2.735082  -0.02113195     16146.48
      8359.8     1.063746     2.730671  -0.02228732     16146.74
        8360     1.059346      2.72592  -0.02220443     16147.27
      8360.2     1.055506     2.721429  -0.02188833     16148.04
      8360.4     1.052127     2.717318  -0.02116202     16149.37
      8360.6     1.048994     2.713161  -0.02025792     16149.55
      8360.8     1.046331      2.70899  -0.01960452     16150.54
        8361     1.043886     2.705222  -0.01937176     16151.48
      8361.2     1.041622     2.701635  -0.01880055     16152.52
      8361.4     1.039525     2.697663  -0.01824138     16153.32
      8361.6     1.037435      2.69395  -0.01843386     16153.84
      8361.8     1.035404     2.690629  -0.01750422     16154.73
        8362     1.033414     2.686888  -0.01705614     16155.58
      8362.2     1.031363      2.68366  -0.01695627     16156.46
      8362.4     1.029255     2.680305   -0.0169471      16157.3
      8362.6     1.027184     2.677064  -0.01743675     16158.03
      8362.8     1.025087      2.67333  -0.01817387     16158.87
        8363     1.022937      2.66971  -0.01948114     16159.81
      8363.2     1.020863     2.665766  -0.02082374     16161.33
      8363.4     1.018745     2.661479  -0.02198162     16162.43
      8363.6     1.016618     2.656671   -0.0222682     16163.51
      8363.8     1.014664     2.652125  -0.02295361     16164.58
        8364     1.012934     2.647951  -0.02317659     16165.91
      8364.2     1.011275     2.643116  -0.02376568     16167.03
      8364.4     1.009754      2.63813  -0.02506663     16167.77
      8364.6     1.008479     2.633113  -0.02524438     16168.57
      8364.8     1.007574     2.627898    -0.024557     16169.47
        8365     1.006911     2.622921  -0.02374141      16169.9
      8365.2     1.006716     2.618484   -0.0221899     16171.03
      8365.4     1.006941     2.614119  -0.02081158     16172.24
      8365.6     1.007491     2.610146  -0.01930568     16173.32
      8365.8     1.008347     2.606272  -0.01774683     16174.35
        8366     1.009689     2.603039  -0.01602859     16175.47
      8366.2     1.011436     2.599922  -0.01484892     16176.94
      8366.4     1.013397     2.597323   -0.0133584     16177.91
      8366.6     1.015692     2.594393  -0.01184933     16178.78
      8366.8     1.018219     2.592353  -0.01131043     16179.91
        8367     1.020976     2.590443  -0.00969234      16180.9
      8367.2     1.023894     2.588275 -0.008860199     16182.09
      8367.4     1.026927     2.586639 -0.007819614     16183.46
      8367.6       1.0299     2.585265 -0.007189198     16184.46
      8367.8     1.032839     2.584187 -0.006779721     16185.33
        8368     1.035767     2.582524 -0.006185594     16186.27
      8368.2     1.038604     2.581215 -0.006131546     16187.28
      8368.4     1.041278     2.580316    -0.004794     16188.17
      8368.6     1.043794     2.579282 -0.003732961     16189.72
      8368.8     1.045685     2.578688 -0.003110785     16190.59
        8369     1.047133     2.578229 -0.002903594      16191.8
      8369.2     1.048215     2.577827 -0.002534049     16192.92
      8369.4     1.048769     2.576959  -0.00191314     16193.85
      8369.6     1.048764     2.576661 -0.001276963     16194.26
      8369.8     1.048429     2.576698 -1.441674e-05     16195.17
        8370     1.047526     2.576806 0.0009340964     16196.02
      8370.2     1.046085     2.576947  0.002139145     16196.82
      8370.4     1.044258     2.577408  0.003140799     16197.74
      8370.6     1.041977     2.578409  0.004271735     16198.31
      8370.8     1.039212     2.579319  0.005238524     16199.13
        8371     1.036112     2.580365  0.005409841     16200.05
      8371.2      1.03272     2.581599  0.006614443     16200.63
      8371.4     1.029264     2.582737  0.008194861     16201.75
      8371.6     1.025561      2.58461   0.00963211     16202.75
      8371.8     1.021659      2.58692   0.01152853     16204.12
        8372     1.017452     2.589305   0.01286082     16204.55
      8372.2     1.013222      2.59196   0.01343908      16205.1
      8372.4     1.009027     2.594899   0.01464545     16206.33
      8372.6     1.004669     2.597672   0.01544689     16207.05
      8372.8     1.000225     2.601021    0.0161049     16207.35
        8373    0.9957486     2.604318   0.01761924     16207.87
      8373.2    0.9911523     2.607783   0.01866098     16208.72
      8373.4    0.9863775     2.611767   0.02004148     16209.38
      8373.6    0.9815311      2.61595   0.02111455     16209.74
      8373.8    0.9766639     2.620351   0.02162308     16210.75
        8374    0.9717324     2.624674   0.02173886     16211.32
      8374.2    0.9668038     2.629066   0.02179478     16211.63
      8374.4    0.9619218     2.633341   0.02269929      16212.4
      8374.6     0.956823     2.637787   0.02369507      16213.3
      8374.8    0.9514762     2.642834    0.0249244     16213.49
        8375    0.9461826     2.648022   0.02569397     16213.76
      8375.2    0.9410143     2.653281   0.02583779     16214.24
      8375.4    0.9359523     2.658342   0.02640125     16215.12
      8375.6    0.9308614     2.663504   0.02717521     16216.22
      8375.8    0.9254997     2.669143   0.02792885     16216.35
        8376    0.9200976     2.675021   0.02878397     16217.05
      8376.2    0.9148747     2.680685   0.02875561     16217.74
      8376.4    0.9098151     2.686531   0.02893894     16218.33
      8376.6    0.9050018     2.692147   0.02919195     16218.97
      8376.8    0.9001528     2.698172   0.02950079     16219.98
        8377    0.8953414     2.704038   0.02985508     16221.16
      8377.2    0.8906292     2.710132    0.0298544     16222.18
      8377.4    0.8861731     2.716031    0.0298383     16223.29
      8377.6     0.881954     2.722055   0.02973396     16224.32
      8377.8    0.8779157     2.727909   0.02993259      16225.2
        8378    0.8740148     2.733919   0.03024973     16225.98
      8378.2    0.8702144     2.739977   0.03038977     16226.51
      8378.4    0.8665374     2.746255   0.02999538     16226.82
      8378.6    0.8630542     2.752221   0.02942974     16227.21
      8378.8     0.859667     2.757915   0.02866374     16228.01
        8379    0.8563679     2.763521   0.02803932        16229
      8379.2    0.8532579     2.769186   0.02775165     16229.85
      8379.4    0.8503097     2.774652   0.02717809      16230.9
      8379.6    0.8473737     2.780117   0.02600812     16231.61
      8379.8    0.8445578     2.785264   0.02481062     16232.68
        8380    0.8418099     2.789993   0.02384006     16233.21
      8380.2    0.8391094     2.794501   0.02206807     16233.76
      8380.4    0.8366007     2.799189   0.02053358     16234.93
      8380.6    0.8342999     2.802918   0.01961415     16236.03
      8380.8    0.8319941      2.80642   0.01741265     16236.85
        8381    0.8297741     2.810192   0.01613513     16237.69
      8381.2    0.8276715     2.813119    0.0147236     16238.49
      8381.4    0.8256765     2.815826   0.01266287     16239.02
      8381.6    0.8237569     2.818198   0.01082571     16239.53
      8381.8     0.822037     2.820322  0.008611241     16240.23
        8382    0.8203987     2.821779  0.005693091     16241.22
      8382.2    0.8188939     2.822715  0.003592304     16242.24
      8382.4    0.8174732     2.822753  0.002146073     16242.83
      8382.6    0.8161503     2.823196 0.0003780539     16243.43
      8382.8    0.8149183     2.823496 -0.0006292469     16244.26
        8383    0.8138016     2.823018 -0.003144693     16245.25
      8383.2    0.8128629      2.82225 -0.005678532      16246.2
      8383.4    0.8120786      2.82068 -0.007336442     16247.34
      8383.6    0.8114705     2.818953 -0.008918317     16248.59
      8383.8    0.8109783     2.817148  -0.01005639      16249.4
        8384    0.8105925     2.815115  -0.01184479     16250.12
      8384.2    0.8103606     2.812635   -0.0134263     16250.83
      8384.4    0.8103126     2.809478  -0.01505217     16251.75
      8384.6    0.8103723     2.806407  -0.01674976      16252.2
      8384.8    0.8105382     2.803073  -0.01785577     16252.64
        8385     0.810832     2.799236  -0.01911754     16253.17
      8385.2    0.8111945     2.795193  -0.02009565     16253.52
      8385.4    0.8116744     2.791113   -0.0209848     16253.74
      8385.6    0.8124115     2.786997  -0.02196055     16254.26
      8385.8    0.8132929     2.782448  -0.02350478      16254.9
        8386    0.8141411     2.777624  -0.02541945      16255.5
      8386.2    0.8151604     2.772309  -0.02727256     16256.14
      8386.4    0.8162978     2.766661  -0.02868683     16257.09
      8386.6    0.8175677      2.76063  -0.02911723     16257.98
      8386.8    0.8187516     2.754675  -0.02991098     16258.55
        8387    0.8199471     2.749016  -0.02978786     16259.09
      8387.2    0.8213176     2.742732  -0.02949328     16259.76
      8387.4    0.8227046     2.736799  -0.03069969     16260.39
      8387.6    0.8240785      2.73108  -0.03039608     16260.77
      8387.8    0.8256491     2.724456  -0.03036985     16261.95
        8388    0.8271883     2.718415   -0.0314241     16262.94
      8388.2    0.8286881     2.712503  -0.03092472     16263.75
      8388.4    0.8303066     2.705941  -0.03086173     16264.58
      8388.6    0.8320272     2.699716  -0.03043872     16265.76
      8388.8    0.8337245     2.693726  -0.02957764     16266.56
        8389     0.835326     2.688153  -0.02891546     16267.24
      8389.2    0.8370225     2.682279  -0.02848386     16268.19
      8389.4    0.8387126     2.676584  -0.02767421     16268.66
      8389.6    0.8404077     2.670939  -0.02662342     16268.83
      8389.8    0.8421426     2.666013   -0.0258145     16269.16
        8390    0.8438862      2.66098  -0.02541089     16269.65
      8390.2    0.8456345     2.655932  -0.02478564     16269.94
      8390.4    0.8474439      2.65061   -0.0240959      16270.3
      8390.6    0.8492675     2.646185  -0.02344429     16271.02
      8390.8    0.8510626     2.641704  -0.02187439     16271.42
        8391    0.8529269     2.637177  -0.02205394     16271.75
      8391.2    0.8548495     2.633111  -0.02206635     16272.36
      8391.4    0.8567691     2.628541  -0.02142056      16272.9
      8391.6    0.8586918      2.62405  -0.02110773     16273.31
      8391.8    0.8607181      2.62004  -0.02008353     16274.08
        8392    0.8627682     2.616225  -0.01906599     16274.85
      8392.2    0.8648933     2.612475  -0.01894976     16275.43
      8392.4    0.8670362     2.608798  -0.01866281      16275.7
      8392.6    0.8693507      2.60488  -0.01820757     16276.45
      8392.8    0.8717247     2.601294  -0.01752317     16277.35
        8393    0.8740606     2.597909  -0.01646716     16278.32
      8393.2    0.8764724     2.594779  -0.01553319     16279.19
      8393.4    0.8789405     2.591707  -0.01494514     16279.83
      8393.6    0.8815754     2.588868  -0.01427831     16280.55
      8393.8    0.8843937     2.585952  -0.01345468     16281.86
        8394    0.8872351     2.583356  -0.01226787     16283.05
      8394.2    0.8900586     2.580943    -0.011003      16283.6
      8394.4    0.8929307     2.579053  -0.01044835     16284.35
      8394.6    0.8958658      2.57715 -0.009957763     16284.85
      8394.8    0.8989363     2.574998 -0.009484682     16285.47
        8395    0.9020207     2.572977 -0.008434264     16285.52
      8395.2    0.9052139     2.571466 -0.007197228     16286.26
      8395.4    0.9084447     2.570403 -0.004841547     16286.92
      8395.6    0.9117357      2.56924 -0.003444369     16287.39
      8395.8    0.9149222     2.569104 -0.003074136     16288.26
        8396    0.9181087      2.56871 -0.002397504     16289.04
      8396.2     0.921494     2.567943 -0.002591951     16290.15
      8396.4    0.9249052     2.567322 -0.001890701     16291.08
      8396.6    0.9283981      2.56703 -0.001474664     16291.93
      8396.8     0.931968     2.567198 -0.0009134462     16292.77
        8397    0.9355447     2.566764 -7.655084e-05     16293.59
      8397.2    0.9390764     2.566591 -0.0004285833     16294.24
      8397.4    0.9425817     2.566969 0.0001481918     16295.19
      8397.6    0.9460237     2.566855 0.0004130167     16295.63
      8397.8    0.9495005     2.566882 -0.0001262683     16295.47
        8398    0.9530779     2.566922 -0.0004340781     16295.79
      8398.2    0.9565697     2.566868 -0.0005822221      16296.3
      8398.4    0.9599343     2.566508 -0.0002503979     16296.57
      8398.6    0.9633058     2.566416 6.232283e-05     16297.23
      8398.8    0.9666019     2.566721 5.595552e-05     16297.65
        8399    0.9697744     2.566918 -0.0006258069     16298.02
      8399.2    0.9729333     2.566552 -0.001184207     16298.85
      8399.4    0.9759759     2.565916 -0.001627081     16299.76
      8399.6    0.9788951     2.565774 -0.002192257     16300.68
      8399.8    0.9818003     2.565616 -0.002667921     16301.07
        8400    0.9846335     2.565119 -0.002857823      16301.5
        8401    0.9985107     2.562051 -0.003153855     16304.49
        8402     1.011855     2.558512 -0.002709369     16307.91
        8403     1.025692     2.555377 -0.001642139     16311.37
        8404     1.040404     2.554281 0.0001417411     16315.34
        8405     1.055905     2.555482  0.002418993     16319.31
        8406     1.070964     2.559079  0.004574444     16323.59
        8407     1.084284     2.565053  0.006019237     16327.87
        8408     1.093963     2.572579  0.006805894      16332.8
        8409     1.100323     2.579559  0.006836714     16338.18
        8410     1.103392     2.586302  0.006289302     16343.39
        8411     1.103224       2.5924   0.00609305     16345.79
        8412     1.100522     2.597736  0.006543996     16349.23
        8413     1.095541     2.603931  0.007329052     16353.27
        8414     1.089161     2.612478  0.008851981     16358.92
        8415     1.082485     2.621716   0.01004761     16362.84
        8416     1.075641     2.633144   0.01085407      16366.8
        8417     1.069075     2.644122   0.01122527     16371.69
        8418     1.062028     2.655895   0.01097435     16376.43
        8419      1.05522     2.666617   0.01081992     16381.42
        8420     1.047788     2.677042   0.01066571     16384.42
        8421     1.040204     2.687402   0.01097892     16388.64
        8422     1.032565     2.698557   0.01165848     16391.62
        8423     1.025077     2.710533   0.01268933     16394.79
        8424     1.018258     2.723676   0.01350115     16396.86
        8425     1.012311     2.738159   0.01403946     16399.43
        8426     1.007169     2.752562   0.01402584     16401.23
        8427     1.002779     2.766691   0.01333837     16405.17
        8428    0.9987167     2.779779   0.01216913      16408.6
        8429    0.9949345     2.791512   0.01004079      16411.9
        8430    0.9918356     2.801239  0.007281957     16415.56
        8431    0.9890396     2.806854  0.003977272     16420.24
        8432    0.9871481     2.808907 -6.105297e-05      16425.1
        8433    0.9859035     2.807421 -0.003672057     16428.26
        8434    0.9856552     2.800994 -0.007350202     16432.16
        8435    0.9861732     2.792166  -0.01069451     16436.12
        8436    0.9874422     2.779506  -0.01303334     16439.73
        8437    0.9886266     2.764643  -0.01493647     16442.23
        8438    0.9897296     2.748861  -0.01609374     16445.11
        8439    0.9908409      2.73242   -0.0168087     16450.46
        8440    0.9914827     2.715131  -0.01717998     16455.65
        8441    0.9916794     2.697409  -0.01738602     16459.79
        8442    0.9916586     2.680141  -0.01695971     16463.64
        8443    0.9913544     2.662876  -0.01599892     16466.44
        8444    0.9911478     2.647292  -0.01461308     16471.31
        8445     0.990646     2.633413  -0.01306126     16474.64
        8446    0.9899133     2.621689  -0.01177585     16477.12
        8447    0.9894184     2.610631  -0.01099198     16479.09
        8448    0.9888311     2.600189  -0.01117988     16482.98
        8449     0.988356     2.589445  -0.01188616      16488.4
        8450    0.9881333     2.576969  -0.01343819     16492.87
        8451    0.9879149     2.563086  -0.01468559     16497.49
        8452    0.9874873     2.546436  -0.01561198     16500.59
        8453    0.9874878     2.530703  -0.01585193     16505.56
        8454     0.987676     2.514521  -0.01497272     16508.43
        8455    0.9884807     2.499678  -0.01381353     16510.83
        8456    0.9894763     2.486545  -0.01179849     16516.26
        8457    0.9906685     2.475449 -0.009345273     16520.59
        8458    0.9919714     2.467327 -0.006504609      16524.4
        8459    0.9930504     2.462297 -0.003511247     16528.16
        8460    0.9937903     2.460527 -0.0006541533     16531.42
        8461    0.9943276     2.461404  0.002123407     16535.42
        8462     0.994308     2.464711  0.004479576     16539.88
        8463    0.9937723     2.470791  0.006657808     16542.98
        8464    0.9928671     2.478445   0.00839424     16545.31
        8465    0.9917034     2.488035  0.009664308     16549.99
        8466    0.9900478     2.498288   0.01064213     16553.23
        8467    0.9876808     2.509448   0.01114881     16557.28
        8468    0.9844206     2.521013   0.01151434     16560.92
        8469    0.9801837      2.53263   0.01121722      16563.2
        8470    0.9754808     2.544345   0.01059432     16566.43
        8471    0.9705051     2.554317  0.009423539     16569.53
        8472    0.9655444     2.563391  0.007657366     16572.28
        8473    0.9608065     2.570324  0.005970631     16575.68
        8474    0.9563054     2.574975   0.00397848     16580.28
        8475    0.9518169     2.578199  0.001791221     16583.53
        8476      0.94783     2.579305 9.370723e-05     16586.41
        8477      0.94533     2.577489 -0.001509384     16589.11
        8478    0.9438314     2.575349 -0.002486275     16591.56
        8479    0.9435208     2.572162 -0.002509495     16595.05
        8480     0.944154      2.56936 -0.001998789     16599.97
        8481    0.9461456     2.567451 -0.000459634     16606.05
        8482    0.9489966     2.567354  0.001768118      16610.9
        8483    0.9530123     2.570323  0.004632623     16615.63
        8484    0.9579526     2.576432  0.008013319     16620.66
        8485    0.9635279     2.585982   0.01153344     16622.08
        8486    0.9692214     2.599408    0.0149552     16623.72
        8487    0.9752079     2.616457   0.01761779     16627.14
        8488    0.9804849     2.636253   0.01932232     16631.38
        8489     0.985382     2.656453   0.01961484      16634.5
        8490     0.990025     2.676697   0.01899903     16637.02
        8491    0.9949812     2.694916   0.01762326     16642.34
        8492    0.9992513     2.712249    0.0154742     16647.87
        8493     1.003455     2.726946   0.01317606     16652.64
        8494     1.007432     2.738594    0.0104989     16654.68
        8495     1.011063     2.747621  0.007959426     16656.71
        8496     1.014347     2.754245  0.005745646     16661.28
        8497     1.017022     2.758783  0.003694186     16665.02
        8498     1.018869     2.761576  0.002059054     16667.07
        8499     1.020205     2.762397  0.000482441     16668.77
        8500     1.021354     2.762481 -0.0008807483     16672.47
        8501     1.022484     2.760713 -0.002281763      16677.1
        8502     1.023871     2.758053  -0.00407604     16682.84
        8503     1.025302      2.75327 -0.006036882     16686.85
        8504     1.026612     2.746177 -0.008540261     16690.56
        8505     1.028243     2.736566    -0.010885     16693.72
        8506     1.029978     2.723892  -0.01312917     16697.77
        8507     1.031815      2.70973  -0.01499493     16700.85
        8508     1.033846      2.69366  -0.01676023     16704.12
        8509     1.035546     2.676586  -0.01842881     16706.29
        8510     1.037489     2.656851  -0.02009276     16711.27
        8511     1.039055     2.636015  -0.02146396     16715.54
        8512     1.040737     2.613289  -0.02252821     16720.04
        8513     1.043574      2.59073  -0.02332179     16724.86
        8514     1.047848     2.566738  -0.02383042     16726.62
        8515     1.052438     2.542728  -0.02428231     16713.56
        8516     1.054663     2.517967  -0.02406224     16691.57
        8517     1.056479     2.493601  -0.02342391     16684.11
        8518     1.057035     2.470489  -0.02213531     16682.69
        8519     1.056386     2.449032  -0.02005832      16683.8
        8520     1.056509     2.429426  -0.01755446     16684.01
        8521     1.054844     2.413368  -0.01461392     16685.76
        8522     1.052309     2.400272  -0.01133025     16690.34
        8523     1.049804     2.390577 -0.007849309     16695.41
        8524     1.048381     2.384105 -0.004179342     16702.42
        8525     1.047731      2.38197 -0.0007088765     16705.05
        8526     1.044913     2.383554  0.002554187      16706.9
        8527     1.040772     2.387741   0.00548349      16710.7
        8528     1.036762     2.394322  0.007899756     16718.83
        8529     1.032319     2.403904   0.00996466     16725.57
        8530     1.027557     2.415153   0.01152833     16728.68
        8531     1.023479       2.4276   0.01253349     16729.17
        8532      1.02063     2.440435   0.01289106     16733.03
        8533     1.016622     2.454038   0.01289325      16735.2
        8534     1.010543     2.466717   0.01268788     16736.84
        8535     1.005707     2.479173   0.01200697     16743.78
        8536      1.00088     2.491187     0.011073     16748.82
        8537    0.9960198     2.502066   0.01026923     16750.64
        8538    0.9927565     2.511009  0.008994196     16750.61
        8539    0.9889003      2.52025   0.00773057     16751.95
        8540    0.9848643     2.527163  0.006652679      16760.7
        8541    0.9822872     2.532988  0.004952793      16765.5
        8542    0.9808091      2.53762  0.003587087     16767.15
        8543    0.9793825     2.540061  0.002208741     16771.49
        8544    0.9788396     2.541512 0.0009183057     16778.26
        8545    0.9795194     2.541823 -0.000186416     16782.48
        8546    0.9792372     2.541293 -0.001068626     16783.62
        8547    0.9787992     2.539315 -0.001668349     16787.43
        8548    0.9788716     2.537237 -0.002147831     16792.09
        8549    0.9789516      2.53515  -0.00239587     16796.39
        8550    0.9802566     2.532702 -0.002587191     16800.49
        8551    0.9813932     2.529732 -0.002956839     16807.78
        8552    0.9822535     2.526888 -0.003198072     16807.77
        8553    0.9841652     2.523323 -0.003199804     16810.33
        8554    0.9861298      2.51991 -0.003453678     16814.87
        8555    0.9874919     2.516933 -0.003589493     16818.16
        8556    0.9896385     2.513074 -0.003846093     16822.05
        8557    0.9916776     2.508965 -0.004163749     16826.12
        8558    0.9929958     2.504525 -0.004382918     16831.02
        8559    0.9942087     2.500278 -0.004221463     16834.29
        8560     0.995046     2.495542 -0.003646313     16834.26
        8561    0.9958761     2.492079 -0.002967202     16836.25
        8562    0.9965991      2.48994  -0.00181847     16842.79
        8563    0.9980203     2.488409 -0.0003105249     16847.78
        8564     0.999545     2.488268  0.001252249     16851.62
        8565    0.9998554     2.490837  0.003073342     16855.72
        8566    0.9999595     2.494949  0.005025027     16861.06
        8567     1.000219     2.500702  0.006599501     16863.63
        8568     1.000654     2.508368   0.00802022     16864.02
        8569     1.000296     2.517235  0.009071918     16867.78
        8570     1.000346      2.52703  0.009490818     16873.98
        8571     1.001907      2.53699  0.009499547     16880.52
        8572     1.003348     2.546332  0.009176493     16888.63
        8573     1.004318     2.555233  0.008508794     16894.63
        8574     1.005529     2.563736  0.007794638     16896.36
        8575     1.006958     2.571025  0.006931549     16898.03
        8576     1.007034      2.57751  0.005966353     16904.03
        8577     1.007189     2.582959  0.005151858     16907.97
        8578     1.008001     2.587601  0.004083927     16913.61
        8579     1.009077     2.591632  0.003187987     16919.33
        8580     1.009769     2.593846  0.002269276     16922.88
        8581     1.010941     2.595711  0.001273912     16927.55
        8582     1.011787     2.596679 0.0003951131     16932.45
        8583     1.013042     2.596728 -0.0007907606     16935.72
        8584     1.014089     2.595426 -0.001781449     16937.41
        8585      1.01513     2.592548 -0.003000851     16939.26
        8586     1.015357     2.589553 -0.004199169     16940.66
        8587     1.015861     2.584725 -0.005400758     16941.91
        8588     1.016995      2.57863  -0.00688852     16943.22
        8589     1.017789     2.570945 -0.007921499     16946.47
        8590     1.019122     2.561999 -0.008990926      16954.8
        8591     1.019763     2.553039 -0.009733555     16959.17
        8592     1.018865     2.542666  -0.01040859     16959.11
        8593     1.018695     2.532011  -0.01120977     16959.99
        8594     1.018933     2.520364  -0.01159114     16963.79
        8595     1.018263     2.508199  -0.01170518     16967.54
        8596     1.017169     2.496301   -0.0115829     16970.95
        8597     1.016334      2.48519   -0.0113163     16972.14
        8598     1.015724     2.474033  -0.01096837     16974.09
        8599     1.014255     2.462934  -0.01050268     16978.29
        8600     1.012189     2.452428  -0.00997345     16984.51
        8601      1.00957     2.443179 -0.009020328     16988.66
        8602     1.007052     2.434139 -0.008137849     16988.65
        8603     1.004979     2.426853 -0.007349685     16991.98
        8604     1.003195     2.419876 -0.006247973     16999.78
        8605     1.001805     2.413781 -0.005490238     17007.26
        8606     1.000382     2.409147 -0.004360192     17009.93
        8607    0.9986204     2.404892 -0.003369525     17014.22
        8608    0.9973142     2.402436 -0.002501429     17018.79
        8609    0.9953076     2.400302 -0.001708736     17022.26
        8610    0.9936824     2.399141 -0.001247691     17024.77
        8611    0.9933304     2.398057 -0.0007358782     17029.96
        8612    0.9936167     2.397445 -0.0004049808     17034.73
        8613    0.9934943     2.397359 -0.0001596573     17036.46
        8614    0.9933763     2.397521 1.645949e-05     17038.34
        8615     0.992742     2.397418 -4.077383e-05     17043.06
        8616    0.9925911     2.397511 -0.0001159914     17044.69
        8617    0.9930804     2.397196 -7.314161e-05     17045.81
        8618    0.9933715     2.397057 -0.0002257421      17047.8
        8619    0.9936073     2.397126 -0.0001469729     17048.18
        8620    0.9937989     2.396608 -0.0002922429     17048.49
        8621    0.9942014     2.396608 -0.0005257394      17043.9
        8622    0.9953445     2.395888 -0.0002776065     17023.94
        8623    0.9966226     2.395023 -0.000459983     16940.72
        8624     0.995439     2.395497 -0.0001698403     16801.26
        8625    0.9953011     2.394768 -4.602498e-05      16832.8
        8626    0.9941094     2.395209 -0.000190202     16894.39
        8627    0.9958142     2.394839 -2.943771e-05     17044.85
        8628    0.9972496     2.394737 -2.311565e-05      17081.4
        8629     0.998104      2.39465 0.0001894798     17091.17
        8630    0.9989489     2.395117 0.0005622051     17097.12
        8631    0.9995808     2.395597  0.000886528     17103.15
        8632     1.000161     2.396985   0.00113872     17109.23
        8633     1.000586     2.398196  0.001534167     17111.55
        8634     1.000576     2.399671  0.001719048     17112.56
        8635     1.000333     2.401733  0.001771817     17116.99
        8636     1.000005     2.403862  0.002073321     17123.34
        8637    0.9997271     2.405284   0.00209249     17129.27
        8638    0.9998554     2.407965   0.00213977     17131.04
        8639     1.000128     2.410103  0.002327659     17132.82
        8640     1.000244     2.412421  0.002112279     17135.19
        8641     1.000725     2.414594  0.002077204     17136.58
        8642     1.001356     2.416414  0.001753288     17138.43
        8643     1.002077     2.418412   0.00167354     17141.34
        8644      1.00297     2.419434  0.001543175     17144.92
        8645     1.003423     2.421288  0.001384125     17146.11
        8646     1.003203     2.422587  0.001358298     17151.45
        8647     1.003092     2.423949   0.00105752     17156.48
        8648     1.003415     2.424867 0.0009558252     17160.97
        8649     1.004041     2.425519  0.000771842     17166.47
        8650       1.0045      2.42641 0.0007675343     17171.34
        8651     1.004909     2.427036 0.0006152284     17175.76
        8652     1.005818     2.427937 0.0006012305      17181.4
        8653     1.006827     2.427979 0.0007236521     17184.56
        8654     1.007134     2.428815 0.0007765938      17187.5
        8655     1.007019     2.429931 0.0009673459      17191.1
        8656     1.007756     2.431043  0.001128055     17195.61
        8657     1.008817     2.431849  0.001091186     17198.88
        8658      1.00957     2.433327  0.001079705     17201.73
        8659     1.010141     2.434295   0.00128595     17205.42
        8660     1.010735     2.435362  0.001443124     17206.53
        8661     1.011517     2.436993  0.001543653      17210.6
        8662     1.011477       2.4391  0.001641117     17213.98
        8663     1.011885      2.44047  0.001601927     17218.01
        8664     1.013025     2.441927  0.001412691     17221.28
        8665     1.014279       2.4434   0.00140625     17222.69
        8666      1.01495      2.44475  0.001242192     17223.41
        8667     1.015263     2.446095 0.0009426045      17228.3
        8668     1.015015     2.446896 0.0005479511     17230.95
        8669     1.015323     2.447171 9.252456e-05     17234.65
        8670     1.016042     2.446942 -0.0003428131     17239.24
        8671     1.016021     2.446465 -0.0008187909     17243.78
        8672     1.014979     2.445524 -0.001330663     17246.16
        8673     1.013428     2.443896 -0.001804083     17248.58
        8674     1.012653     2.441619 -0.002375868     17253.02
        8675     1.012074     2.439249  -0.00281886     17255.51
        8676     1.011324     2.436021 -0.003132966     17258.15
        8677      1.00983      2.43262 -0.003511329        17262
        8678     1.008068     2.429088 -0.003625746     17265.36
        8679      1.00673     2.425203 -0.003980445     17271.11
        8680     1.005131     2.421518 -0.004171325     17274.17
        8681     1.003304     2.416698 -0.004273814     17277.57
        8682      1.00148     2.412402   -0.0045589     17282.29
        8683     1.000119     2.408108 -0.004512905     17285.42
        8684    0.9989265     2.403282  -0.00459018     17287.12
        8685    0.9976216     2.398647 -0.004688623     17289.09
        8686    0.9957071     2.394042 -0.004434624     17290.54
        8687    0.9938217     2.389354 -0.004268791     17292.66
        8688    0.9925345     2.385544 -0.004035895     17295.59
        8689    0.9912251     2.381572 -0.003648934     17298.47
        8690     0.990158     2.377898 -0.003261551     17302.33
        8691    0.9895082     2.374758 -0.002832457     17306.05
        8692    0.9891178     2.372498  -0.00244107     17308.98
        8693    0.9886113     2.370242 -0.001836876     17312.06
        8694    0.9882729     2.368134  -0.00154941     17316.38
        8695    0.9885255      2.36741 -0.001143687     17320.88
        8696    0.9883029       2.3663 -0.0007406349     17324.45
        8697     0.988102     2.365667 -0.0006134155     17324.41
        8698    0.9883088     2.365171 -0.000454897     17310.74
        8699    0.9880986     2.364957 -0.0004709026     17298.06
        8700    0.9880059      2.36448 -0.0005209952     17305.92
        8701    0.9882198     2.363783 -0.0007310523     17317.04
        8702    0.9882252     2.363087 -0.0009475914     17330.75
        8703    0.9883017     2.362033 -0.001187137     17339.13
        8704    0.9885223      2.36069  -0.00151416     17343.83
        8705    0.9887909     2.359035 -0.001862439     17344.64
        8706    0.9888444     2.357031 -0.002241669     17335.24
        8707    0.9889401     2.354583  -0.00258243     17325.84
        8708    0.9894108     2.351723 -0.002964959     17332.46
        8709     0.989739     2.348705   -0.0033169     17341.96
        8710    0.9900066     2.345171 -0.003488308     17353.47
        8711    0.9898982     2.341315 -0.003805524     17362.32
        8712    0.9892574      2.33777 -0.003896545     17366.89
        8713    0.9893484     2.333483 -0.003668765     17372.82
        8714    0.9895177     2.329585 -0.003590515     17375.83
        8715    0.9891493      2.32664 -0.003135336     17380.59
        8716    0.9884636     2.323408 -0.002637062      17385.2
        8717    0.9880243     2.320942 -0.002303132     17388.64
        8718    0.9876356     2.319036 -0.001801212     17391.34
        8719    0.9874874     2.317428 -0.001371745     17397.09
        8720    0.9875299     2.316203 -0.001033993     17402.03
        8721    0.9875981     2.315455 -0.0007593085     17404.64
        8722    0.9875673       2.3149 -0.0006226064     17405.14
        8723    0.9875963      2.31439 -0.0005879816     17407.67
        8724    0.9876819     2.313713 -0.0005520745     17411.75
        8725    0.9880037     2.313103 -0.0005666687     17415.53
        8726    0.9883723     2.312692 -0.0004738029     17419.07
        8727    0.9886461     2.312124 -0.000386466     17423.55
        8728    0.9892553     2.311817 -0.0004793099     17427.16
        8729    0.9900129     2.311557 -0.0003753343        17430
        8730    0.9906031     2.310775 -0.0003828165     17430.93
        8731    0.9913755     2.310622 -0.0003310364     17433.83
        8732    0.9924286     2.310286 -3.802953e-05     17437.65
        8733    0.9935473     2.310233 -4.232922e-05     17443.11
        8734    0.9943878     2.310623 1.408978e-05     17448.75
        8735    0.9944231     2.310453 6.148842e-05     17452.02
        8736    0.9943705     2.310343 -8.811514e-05     17453.82
        8737    0.9944829     2.310479 0.0001148233     17456.93
        8738    0.9952569      2.31027  0.000194605     17461.87
        8739     0.996055     2.310912 0.0002838795     17466.39
        8740    0.9970858     2.311121 0.0003888205     17470.43
        8741    0.9979696     2.311614  0.000318803     17470.84
        8742    0.9988283     2.311825  0.000312173     17471.18
        8743    0.9998152     2.312188 0.0003766749     17474.87
        8744       1.0004      2.31237 0.0004736743     17477.21
        8745     1.000998     2.313121 0.0003887835     17480.75
        8746     1.001842      2.31372 0.0005009128      17484.8
        8747     1.002262     2.313743 0.0004396178     17486.55
        8748     1.002549     2.314373  0.000431787     17486.79
        8749     1.002994     2.314879 0.0005837222     17488.62
        8750     1.003398     2.315447 0.0004892695     17492.53
        8751     1.003807     2.316078 0.0004838583     17496.02
        8752     1.004177      2.31633 0.0003854197     17497.65
        8753     1.004342     2.316815 0.0003768025     17500.69
        8754     1.005489     2.316989   0.00049228     17506.08
        8755     1.006929     2.317585 0.0004901293     17509.59
        8756     1.007594       2.3183 0.0004662544     17512.33
        8757     1.007765     2.318775 0.0003895607     17514.34
        8758     1.008448     2.318854 0.0003114526     17516.19
        8759      1.00915     2.319143 0.0001578562     17519.12
        8760     1.009562     2.319545 0.0002131904      17524.1
        8761     1.009609     2.319407 0.0002225586      17529.4
        8762     1.008929     2.319707 5.096488e-05     17534.29
        8763     1.008106     2.320033 0.0001961259     17538.45
        8764     1.007518     2.319749 0.0001570045      17540.8
        8765     1.007034     2.320191  0.000139938     17543.16
        8766     1.006893     2.320335 0.0003300689     17545.82
        8767     1.006662     2.320593 0.0001984029     17548.29
        8768     1.006375     2.321069 0.0001071946      17551.4
        8769      1.00618     2.320985 -3.293103e-05     17554.91
        8770     1.005858     2.320764 -0.0001383861      17558.2
        8771     1.004657     2.320461 -0.000242878     17560.86
        8772     1.003276     2.320516 -0.0002456827     17563.83
        8773     1.002123     2.320013 -0.000352189     17566.69
        8774     1.001052     2.319781 -0.0004598494     17570.11
        8775     1.000121     2.319053 -0.0005346133     17573.39
        8776    0.9993517     2.318677 -0.0007029665      17576.2
        8777    0.9989511     2.317875 -0.0008395168     17578.01
        8778    0.9984509     2.316969 -0.001028554     17579.13
        8779    0.9977209     2.315695 -0.001194681     17580.53
        8780     0.996659     2.314562 -0.001365138     17582.51
        8781    0.9962908     2.313096 -0.001411017     17586.47
        8782    0.9967451     2.311508 -0.001599966     17591.36
        8783    0.9970303      2.31005 -0.001772866     17593.36
        8784    0.9973256     2.308162  -0.00196996      17595.3
        8785    0.9965368     2.306005 -0.002261782     17597.18
        8786    0.9958041     2.303629 -0.002405054     17600.03
        8787    0.9951772     2.301003 -0.002507749     17602.54
        8788    0.9949454     2.298542 -0.002550143     17601.95
        8789    0.9951033     2.295974 -0.002488265     17604.27
        8790    0.9953103     2.293428 -0.002594532     17608.27
        8791    0.9954588      2.29105 -0.002570044     17612.15
        8792    0.9954541     2.288164 -0.002583386     17616.29
        8793    0.9957255     2.285694 -0.002576615     17619.46
        8794    0.9961437     2.283094 -0.002334119     17621.81
        8795    0.9962483     2.280744 -0.002263175     17624.48
        8796    0.9963218     2.278828 -0.002095465     17627.35
        8797    0.9968237     2.276641 -0.001931796     17630.11
        8798    0.9968986     2.274713 -0.001817261     17631.34
        8799    0.9964155     2.273017 -0.001586311     17632.02
        8800    0.9959053     2.271559 -0.001447638     17634.47
        8801    0.9956367     2.270296 -0.001307269     17636.91
        8802    0.9955623     2.268922  -0.00117903     17639.93
        8803    0.9957037     2.267788 -0.001059665     17641.91
        8804    0.9958446     2.266842 -0.000951713     17646.52
        8805    0.9956529     2.266057 -0.0007626817     17649.42
        8806    0.9955271     2.265115 -0.0006021944     17652.42
        8807    0.9953332     2.264737 -0.0006064248     17655.14
        8808    0.9951415     2.264434 -0.0004766386     17658.05
        8809    0.9954484     2.263631 -0.0005457194      17661.2
        8810    0.9956377     2.263209 -0.0005862906     17664.19
        8811    0.9954679     2.262554 -0.0005956131     17666.78
        8812    0.9950063     2.262089 -0.0006260656     17668.98
        8813    0.9948634     2.261249 -0.000589482     17670.05
        8814    0.9946445     2.260704 -0.000643842     17672.74
        8815    0.9945865     2.260196 -0.0006514456     17677.04
        8816     0.994704     2.259513 -0.000735891      17681.1
        8817    0.9947363     2.258643 -0.0007762274     17684.03
        8818    0.9949002     2.257761 -0.0008813646      17686.5
        8819    0.9949841     2.257091 -0.0009638866     17688.38
        8820    0.9948818     2.255988 -0.001015433     17690.92
        8821    0.9947802     2.254788 -0.001092786     17691.57
        8822    0.9949321     2.253699 -0.001223461     17692.78
        8823    0.9950066      2.25272 -0.001245066     17691.72
        8824    0.9948629     2.251094 -0.001414622     17690.73
        8825    0.9945293     2.249807 -0.001576842      17690.1
        8826    0.9940766     2.248041 -0.001668863     17687.55
        8827    0.9936171     2.246413 -0.001833462     17682.34
        8828    0.9938067     2.244418 -0.001763169     17674.51
        8829    0.9940263     2.242473 -0.002006584     17655.66
        8830    0.9949565     2.240988 -0.001729186     17610.67
        8831    0.9970588     2.238386  -0.00139612     17473.43
        8832    0.9981891     2.237502 -0.001807336     17192.27
        8833    0.9932866     2.236889 -0.001184907     17202.93
        8834    0.9961609     2.233759 -0.001335441     17331.25
        8835    0.9953011     2.233647  -0.00165882     17215.53
        8836      0.99268      2.23216 -0.001190128     17461.78
        8837    0.9946647     2.230254 -0.001465012     17689.34
        8838    0.9952499     2.228998  -0.00143055     17742.59
        8839    0.9953657     2.227787 -0.001164411     17755.57
        8840    0.9956096     2.226438 -0.001125008     17761.42
        8841    0.9960459     2.225596 -0.001113889     17764.93
        8842    0.9962964     2.224498 -0.001020721     17767.64
        8843    0.9964162     2.223331 -0.001106697     17769.75
        8844    0.9966885     2.222355 -0.001102144     17773.12
        8845     0.997065     2.221169  -0.00107291     17775.34
        8846    0.9973895     2.220089 -0.001094008     17777.31
        8847    0.9977973     2.219039 -0.001127643     17779.73
        8848    0.9984321     2.217979   -0.0010944     17783.43
        8849    0.9991572     2.216659 -0.001189727     17787.86
        8850    0.9994553     2.215712 -0.001086319     17791.29
        8851    0.9997656      2.21428 -0.0009899139     17793.45
        8852    0.9999442     2.213634 -0.001060683     17794.83
        8853     1.000553     2.212699 -0.0008609272     17797.09
        8854      1.00106     2.211469 -0.0008991028     17798.64
        8855     1.001341     2.210837 -0.0008714122     17801.99
        8856     1.001331     2.210037 -0.0006906564     17804.31
        8857     1.000951     2.209213 -0.0006533722     17805.61
        8858     1.000792     2.208706 -0.0005987143     17807.75
        8859     1.000838     2.208223 -0.0005435328     17811.26
        8860     1.000835     2.207642 -0.0005224976     17815.15
        8861     1.000979     2.207039 -0.0004442131     17821.76
        8862     1.001368     2.206616 -0.0003793762     17827.18
        8863     1.001344     2.206446 -0.0003819607     17832.05
        8864     1.000636     2.206125 -0.0002677896     17833.72
        8865     1.000049     2.205511 -0.0001254434     17834.33
        8866    0.9997891     2.205545 -9.999645e-06     17835.92
        8867     0.999185     2.205945 9.084309e-05     17837.26
        8868    0.9987389     2.206085 0.0001283762     17839.25
        8869     0.998331     2.205875 3.378721e-05      17841.2
        8870     0.998146     2.206059 -8.057553e-05     17844.02
        8871    0.9982333      2.20608 1.660916e-05     17847.94
        8872    0.9981873     2.205762 -3.776622e-05     17850.97
        8873    0.9982529     2.205941 -4.810856e-06     17855.52
        8874    0.9981888     2.205908 0.0001459302     17858.91
        8875    0.9981498     2.206061 0.0002073476     17861.89
        8876    0.9978764     2.206346 0.0001400857     17864.56
        8877    0.9977228     2.206771 0.0002474708     17867.02
        8878    0.9974751     2.206468 0.0001457712     17868.23
        8879     0.997204      2.20705 0.0001564939        17870
        8880    0.9974284     2.206929 0.0003447511     17873.88
        8881    0.9974224     2.207397 0.0002689474     17877.29
        8882    0.9972327     2.207847 0.0003587524     17880.18
        8883    0.9971542     2.208126 0.0003291283     17881.38
        8884    0.9970078     2.208364 0.0002532979     17882.63
        8885    0.9968224     2.208713 0.0002001172     17885.97
        8886    0.9965871      2.20886 0.0002538541     17889.74
        8887    0.9960726     2.208927 0.0002483113     17892.91
        8888    0.9959091      2.20938 0.0001651076      17895.9
        8889    0.9957018     2.209706 1.700622e-05     17899.24
        8890    0.9954978     2.209521 -4.648845e-05     17902.14
        8891    0.9954415     2.208995 -0.0002746966     17905.32
        8892    0.9955411     2.209194 -0.0002427458     17907.35
        8893    0.9958065     2.208608 -0.0001884138     17909.23
        8894    0.9955666      2.20855 -0.0004668659     17911.75
        8895    0.9953352     2.208241 -0.0003971046     17914.69
        8896    0.9954715     2.207326 -0.0006310737     17918.48
        8897    0.9957513     2.207019 -0.0007641555     17920.72
        8898    0.9960691     2.206025 -0.0008016337     17923.17
        8899    0.9962251     2.205184  -0.00107372     17926.28
        8900    0.9960592      2.20412 -0.001126649     17928.18
        8901    0.9959322     2.202724 -0.001254414     17931.31
        8902    0.9959247     2.201519 -0.001386921     17934.26
        8903    0.9959913     2.200167 -0.001555516      17936.9
        8904    0.9960716     2.198572 -0.001692626     17941.09
        8905    0.9960302     2.196502 -0.001836402     17942.19
        8906     0.995823     2.194748 -0.001877165      17943.3
        8907    0.9953169     2.192821 -0.001768432     17946.16
        8908    0.9947997     2.191063  -0.00177387     17948.94
        8909    0.9945261     2.189428 -0.001746803     17951.34
        8910    0.9942371     2.187653 -0.001754372     17954.85
        8911    0.9938682     2.185834 -0.001803022     17958.39
        8912    0.9939156     2.184046 -0.001683743     17962.76
        8913    0.9940715     2.182216 -0.001550219      17965.5
        8914    0.9941077     2.180918 -0.001562524     17966.16
        8915    0.9939748     2.179633  -0.00144356     17967.98
        8916    0.9942041     2.177796 -0.001432416        17971
        8917     0.994423     2.176442 -0.001450303      17973.6
        8918    0.9944349     2.175188 -0.001307483     17975.33
        8919    0.9945508     2.173832 -0.001258731     17978.97
        8920    0.9946534     2.172566 -0.001246877     17981.96
        8921    0.9947388     2.171407 -0.001174344     17984.81
        8922     0.995127     2.170201 -0.001175563     17987.28
        8923    0.9953247     2.169134 -0.001132384      17990.2
        8924    0.9955534     2.167864  -0.00102899      17992.6
        8925    0.9959896     2.166878 -0.001078053        17996
        8926    0.9962049     2.166085 -0.0009741141     17998.95
        8927    0.9965158     2.164822 -0.000977407      18001.1
        8928    0.9967196     2.163967 -0.001085281     18002.01
        8929    0.9969662     2.162968 -0.0009492072     18003.85
        8930    0.9973501     2.161744 -0.0009395593     18006.64
        8931    0.9978953     2.161025 -0.0009265747     18009.76
        8932    0.9981763     2.160209 -0.0008327358     18013.17
        8933    0.9987001     2.159262 -0.0008555556     18014.88
        8934    0.9988487     2.158413 -0.0008227694     18018.27
        8935    0.9989069     2.157603 -0.000752163     18020.42
        8936    0.9990623     2.156918 -0.0008063045     18017.12
        8937    0.9998633     2.156253 -0.0006972952     17992.74
        8938     1.000551     2.155187 -0.0006223256     17940.09
        8939     1.000015     2.154814 -0.0007042207     17922.04
        8940     0.999688     2.154429 -0.0006899486     17943.98
        8941    0.9996898     2.153436 -0.0007839636     17999.27
        8942     1.000078     2.152428 -0.0009239168     18021.32
        8943     1.000403     2.151678 -0.0007670652      18029.3
        8944     1.000667     2.150733 -0.0007587889     18035.35
        8945      1.00044     2.150368 -0.0008548749     18041.57
        8946     1.000315     2.149393 -0.0007988094     18046.41
        8947     1.000295     2.148259 -0.0009057274     18049.61
        8948      1.00023     2.147538 -0.0009158055     18053.28
        8949     1.000087     2.146745 -0.0008084926     18054.72
        8950     1.000077     2.145729 -0.0009099281     18055.92
        8951     1.000383     2.145025 -0.000944405     18058.95
        8952     1.000572     2.143898 -0.0008304195     18061.09
        8953     1.000818     2.142967 -0.0009176528     18063.65
        8954     1.001122     2.142408 -0.0008755134     18066.98
        8955     1.001221     2.141354 -0.000803985     18070.23
        8956     1.001435     2.140396 -0.0009302268     18071.14
        8957     1.001319     2.139751 -0.0009197658     18072.05
        8958     1.001209     2.138687 -0.0009330732     18074.25
        8959     1.001337     2.137675 -0.0009204168     18076.98
        8960     1.001577     2.136664 -0.0008895006     18078.36
        8961     1.001736      2.13607 -0.000863437     18081.62
        8962     1.001623     2.135129 -0.0008624354     18084.28
        8963     1.001246     2.134221 -0.0009513679     18086.66
        8964     1.000986     2.133214  -0.00099884     18089.26
        8965     1.000756     2.132264 -0.001046286     18092.95
        8966     1.000781     2.131133 -0.001041708     18096.75
        8967     1.000951     2.130036 -0.001067668     18099.11
        8968     1.001267     2.129047 -0.0009789615     18100.13
        8969     1.001548     2.127994 -0.000985894     18101.77
        8970       1.0019     2.127218 -0.0009061876     18103.46
        8971     1.002384     2.126093 -0.0008790327     18107.73
        8972     1.002414     2.125422 -0.0009080236     18112.15
        8973     1.002479     2.124478 -0.0008423493     18115.37
        8974     1.002609     2.123585 -0.0009442925     18116.96
        8975     1.002596     2.122723 -0.0009403732     18118.37
        8976     1.002642     2.121645 -0.0008670955     18120.52
        8977     1.002485     2.120716 -0.0008117089     18122.76
        8978     1.002271     2.120117 -0.0007630427     18124.08
        8979     1.001947     2.119476 -0.0007805213     18125.16
        8980     1.001718     2.118593 -0.0007258282     18127.13
        8981     1.001747     2.117594 -0.0007651489     18129.49
        8982      1.00186     2.117214 -0.0007103936      18129.7
        8983     1.001718     2.116416 -0.0007514719     18130.83
        8984     1.001237     2.115751 -0.0007110694     18133.15
        8985     1.001054     2.114588 -0.0006741693     18134.98
        8986       1.0007     2.114369 -0.0006756307     18136.83
        8987     1.000142     2.113719 -0.0005624015     18139.12
        8988    0.9997394     2.113049 -0.0006099522     18141.78
        8989    0.9996049     2.112338 -0.0005158458     18143.17
        8990    0.9996891      2.11193 -0.0005267621     18145.54
        8991    0.9996834     2.111656 -0.0005082906      18146.7
        8992     0.999653     2.110942   -0.0005003     18147.12
        8993    0.9999167     2.110305 -0.0006001578     18149.21
        8994     1.000487     2.109928 -0.0005345649     18150.94
        8995     1.001157     2.109255 -0.0005579084     18153.64
        8996     1.001362     2.108803 -0.0005398015     18156.77
        8997     1.001281     2.108074 -0.000529948     18159.57
        8998     1.001066     2.107769 -0.0006232694     18162.03
        8999     1.000719     2.107135 -0.0005848982     18163.18
        9000     1.000525      2.10631 -0.0006273258     18165.73
        9001     1.000352     2.105734 -0.0005337615     18167.77
        9002     1.000193      2.10526 -0.000477559     18169.71
        9003      1.00024        2.105 -0.0004211227     18173.02
        9004     1.000444       2.1044 -0.0004766066     18176.87
        9005      1.00062      2.10405 -0.0004867397     18180.17
        9006     1.000658     2.103354 -0.0004735087     18181.78
        9007     1.000514     2.103053 -0.000482929        18184
        9008     1.000548     2.102506 -0.000422928     18187.37
        9009     1.000494     2.102118 -0.0004891395     18188.95
        9010     1.000234     2.101662 -0.0004693132     18189.28
        9011     1.000491     2.101097 -0.000422955     18191.78
        9012     1.000526     2.100629  -0.00046637      18193.6
        9013     1.000663     2.100426 -0.0003673943     18195.11
        9014     1.000994     2.099796 -0.000416802     18197.84
        9015     1.001141     2.099627 -0.0004158082     18199.92
        9016     1.000877     2.098962 -0.0003892957     18203.04
        9017     1.000183     2.098763 -0.0004304899     18204.61
        9018     0.999391     2.098239 -0.0004088863     18206.99
        9019     0.998793     2.097905 -0.0004994072     18209.37
        9020    0.9984009     2.097326 -0.0006007837      18213.4
        9021     0.998029     2.096765 -0.0005766509     18216.72
        9022    0.9980299     2.095836 -0.0006182615     18219.45
        9023    0.9978949     2.095599 -0.000604656     18221.44
        9024    0.9981101     2.094853 -0.000536272     18223.89
        9025    0.9984548     2.094347 -0.0006477789      18225.7
        9026    0.9987522     2.093691 -0.0005738728     18227.71
        9027    0.9988741     2.093007 -0.0006893222     18230.22
        9028    0.9990804     2.092558 -0.0006860698     18233.11
        9029    0.9994472     2.091589 -0.0007032968     18236.23
        9030    0.9996227     2.090947 -0.0007063642     18239.35
        9031     0.999627     2.090194 -0.0006873522     18240.44
        9032    0.9995536     2.089732 -0.0007083474     18242.44
        9033    0.9992488      2.08884 -0.0007364453      18243.4
        9034    0.9988654     2.088113 -0.0007196723      18244.9
        9035    0.9987343     2.087248 -0.0007563667     18248.11
        9036    0.9986757     2.086853 -0.0007801305     18251.51
        9037    0.9989529     2.085814 -0.0007578822     18254.55
        9038    0.9987998     2.084993 -0.0008375491     18256.02
        9039    0.9986399     2.084217 -0.0008080468     18256.18
        9040    0.9987332     2.083503 -0.0007611564     18256.54
        9041    0.9991303     2.082582 -0.0007028383     18258.43
        9042    0.9994936     2.081948 -0.0007000662     18260.92
        9043    0.9996595     2.081406 -0.0007467671     18262.47
        9044    0.9995586     2.080703 -0.0008077667     18265.13
        9045    0.9993172     2.079595 -0.0008463645     18269.06
        9046    0.9990069     2.078717 -0.0009477386     18272.07
        9047     0.998826      2.07802 -0.0009001831     18274.51
        9048    0.9986564     2.076912 -0.0008954123     18276.97
        9049    0.9985157     2.075994 -0.0008894237     18278.13
        9050    0.9983302     2.075135 -0.0008873529     18277.69
        9051    0.9981645     2.074462 -0.0008737699     18279.43
        9052    0.9983113     2.073363 -0.0008421387        18283
        9053    0.9984038     2.072499 -0.0009024083     18286.11
        9054    0.9982392     2.071767 -0.000848277     18288.07
        9055    0.9980159     2.070853 -0.0008733925      18289.7
        9056    0.9980654      2.06997 -0.0009380478     18291.44
        9057    0.9980807     2.069006 -0.0008909427     18292.85
        9058    0.9979975     2.068015 -0.0008418036     18292.72
        9059    0.9979305     2.067289 -0.0009313937     18294.55
        9060    0.9981323     2.066602 -0.0008634969     18297.08
        9061     0.998233      2.06528 -0.000968656     18297.96
        9062    0.9985422     2.064561 -0.0009673171     18298.24
        9063    0.9989351     2.063414 -0.0008234429     18299.57
        9064    0.9993785     2.062733  -0.00084357     18301.73
        9065    0.9994673     2.061986 -0.0007304735      18302.8
        9066    0.9995563     2.061186 -0.000745151     18305.55
        9067    0.9996223     2.060493 -0.0007776961     18307.84
        9068    0.9996119     2.059752 -0.0007738688     18310.67
        9069    0.9995516     2.058876 -0.0008026572     18312.71
        9070    0.9996583     2.058091 -0.0007668527     18315.17
        9071    0.9998517     2.057282 -0.0007751149     18317.89
        9072    0.9999119     2.056685 -0.0007893869     18320.85
        9073     1.000049     2.055775 -0.0007476333      18322.4
        9074      1.00038     2.054933 -0.0007954988     18324.82
        9075     1.000659     2.054291 -0.0008039115     18326.29
        9076     1.001029     2.053503 -0.0008118129     18328.06
        9077     1.001248      2.05256 -0.000849179     18329.82
        9078     1.001042     2.051686 -0.0008888232     18332.03
        9079     1.000982     2.050895 -0.0008292715     18332.79
        9080     1.001138     2.049948 -0.0008251234     18333.97
        9081     1.000988     2.049242 -0.0007873673     18334.44
        9082      1.00115     2.048386 -0.0007673491      18334.7
        9083     1.001204     2.047745 -0.0007664565      18334.9
        9084     1.001495     2.046878 -0.0007777307     18331.97
        9085     1.001625     2.046177 -0.0009325115     18316.94
        9086     1.001968     2.045275 -0.0008670732     18290.26
        9087       1.0021     2.044015 -0.0008790922     18271.97
        9088     1.001875      2.04341 -0.0009172375     18265.24
        9089     1.001876      2.04266 -0.0007525536     18259.32
        9090     1.001938     2.041606 -0.0007531679     18234.24
        9091     1.001942     2.041005 -0.000863108     18178.81
        9092     1.002081     2.040397 -0.0005672106     18139.36
        9093     1.003259     2.039208 -0.000652451     18043.33
        9094     1.000805     2.039337 -0.0008116909     18035.59
        9095      1.00099     2.038395 -0.0006364194     18195.79
        9096     1.002989     2.037151 -0.0008002632     18210.76
        9097     1.003762     2.036662 -0.0007625572     18078.17
        9098     1.002612     2.036136 -0.0006854968     18077.44
        9099     1.002315     2.035345 -0.000788456     18183.93
        9100     1.002662     2.034409 -0.0008659509      18264.7
        9101     1.002576     2.033508 -0.0008203537     18281.04
        9102     1.002237     2.032672 -0.0007760105     18300.63
        9103     1.002051     2.032063 -0.0007441025     18321.79
        9104     1.001771     2.031305 -0.0007640968     18333.87
        9105     1.001144     2.030532 -0.0008395302     18341.44
        9106     1.000708     2.029616 -0.0008675947     18351.41
        9107     1.000534     2.028705 -0.0008709334     18367.71
        9108     1.000218     2.027834 -0.0008208385     18385.03
        9109     1.000227     2.027048 -0.0007229699     18395.28
        9110     1.000354     2.026332 -0.0007514496     18400.75
        9111     1.000517     2.025813 -0.0007360099     18405.22
        9112     1.000916     2.024828 -0.0007546044      18408.4
        9113     1.000967     2.024104 -0.0008248082     18409.69
        9114     1.001272     2.023314 -0.0007096641     18413.06
        9115     1.001642     2.022514 -0.0007181179     18417.26
        9116      1.00179      2.02199 -0.0007636364     18421.05
        9117     1.001761     2.021232 -0.0007665596     18424.55
        9118     1.001843     2.020259 -0.0008014738     18426.81
        9119     1.001927     2.019448 -0.000809831     18428.56
        9120     1.001935     2.018784 -0.0007205599     18429.73
        9121     1.001928     2.017992 -0.0007249158     18431.14
        9122     1.001811     2.017377 -0.0007754932     18431.11
        9123      1.00179     2.016548 -0.0007935824     18432.09
        9124       1.0016     2.015682 -0.000745122     18434.14
        9125     1.001332     2.014818 -0.0007461851     18436.87
        9126     1.000972     2.014397 -0.0007603037      18440.9
        9127     1.000705     2.013564 -0.0006850141     18443.37
        9128     1.000648     2.012641 -0.0007271529     18445.42
        9129      1.00056     2.012078 -0.0007008752     18447.43
        9130     1.000551     2.011488 -0.0006245932     18448.91
        9131     1.000657      2.01076 -0.0006389001     18450.62
        9132     1.000711     2.010142 -0.0005902558     18451.72
        9133     1.001055     2.009522 -0.0005570807      18453.6
        9134     1.001439     2.009127 -0.0006190922     18455.78
        9135     1.001696     2.008532 -0.0005943861     18458.14
        9136     1.001942     2.007666 -0.0006588981     18460.25
        9137     1.002156     2.007145 -0.0005925985     18459.85
        9138     1.002599     2.006491 -0.0004699003     18460.74
        9139      1.00296     2.006161 -0.0004832458     18461.16
        9140     1.002758     2.005786 -0.0004007277     18461.96
        9141     1.002503     2.005212 -0.0005280245     18464.84
        9142     1.002279     2.004888 -0.0005206985     18467.55
        9143     1.002091     2.004049 -0.0005572312     18470.71
        9144     1.002244     2.003704 -0.0006564441     18473.46
        9145     1.002363     2.002983 -0.0005149813     18475.55
        9146     1.002753     2.002263 -0.0005055099     18478.27
        9147     1.003223     2.001989 -0.0004981042     18479.56
        9148       1.0035     2.001681 -0.0004605619     18481.79
        9149     1.003598      2.00099 -0.0005465584     18481.97
        9150     1.003726      2.00042 -0.0005645992     18482.45
        9151     1.003538     1.999803 -0.0005317822     18482.88
        9152     1.003029     1.999423 -0.0005639224     18484.01
        9153     1.002583     1.998863 -0.0004990588     18485.23
        9154     1.002174     1.998165 -0.0005892978     18487.12
        9155     1.001856     1.997807 -0.0005209763      18489.4
        9156     1.001503     1.997066 -0.0005849454     18490.54
        9157     1.001477     1.996779 -0.0005252538     18491.58
        9158     1.001639     1.995825 -0.0005137605     18494.38
        9159     1.001763     1.995706 -0.0006076234     18496.79
        9160     1.002106     1.995011 -0.0005132874     18499.45
        9161     1.002162     1.994349 -0.0006451809     18501.92
        9162     1.002181     1.993772 -0.000608935     18503.77
        9163     1.002149     1.993125 -0.0006407262     18505.62
        9164     1.002188     1.992575  -0.00059801     18508.66
        9165     1.002118     1.991786 -0.0006381756     18511.16
        9166     1.001941      1.99138 -0.0006688391     18512.88
        9167     1.002097     1.990572 -0.0006357824     18514.04
        9168      1.00238       1.9899 -0.0006670355     18516.56
        9169     1.002468     1.989243 -0.0006739752     18519.16
        9170     1.002284     1.988712 -0.0006013064     18522.35
        9171     1.002009     1.987877 -0.0006718016     18524.26
        9172     1.001645     1.987495 -0.0006846273     18525.06
        9173     1.001357     1.986556 -0.0006601527     18525.28
        9174      1.00089     1.985973 -0.0007826344     18524.87
        9175     1.000811     1.985236 -0.0007032486     18525.48
        9176     1.000852     1.984364 -0.0007908549     18526.33
        9177     1.000923     1.983743 -0.0007765726     18526.75
        9178     1.001203      1.98281 -0.0006931657     18527.31
        9179     1.001166      1.98213 -0.0006827024     18526.94
        9180     1.001404     1.981591 -0.0006239908     18529.27
        9181     1.001538     1.981012 -0.0006701321     18530.38
        9182     1.001631     1.980314 -0.0006713767     18530.73
        9183     1.001485     1.979449 -0.0006915648     18531.94
        9184     1.001077     1.978906 -0.0006663922     18532.77
        9185     1.000951     1.978246 -0.000658147     18534.39
        9186     1.000832     1.977648 -0.0006567229     18535.62
        9187     1.000789     1.976817 -0.0006279138     18536.61
        9188      1.00068     1.976279 -0.000671502     18539.03
        9189     1.000567     1.975734 -0.0006164157     18539.33
        9190     1.000528     1.974962 -0.0006293361     18539.74
        9191     1.000438     1.974351 -0.0006654135     18541.53
        9192     1.000388     1.973762 -0.0006031304     18543.81
        9193     1.000141     1.973072 -0.0005617853     18546.23
        9194      1.00005      1.97255 -0.0005465231     18548.67
        9195     1.000095     1.972104 -0.0005427252     18548.64
        9196     1.000258     1.971576 -0.0005659368     18548.44
        9197     1.000371     1.970901 -0.0006187057     18549.12
        9198     1.000387     1.970286 -0.0005854589     18550.03
        9199      1.00033     1.969629 -0.000685765     18551.76
        9200     1.000496     1.969234 -0.0006976561     18554.54
        9201     1.000802     1.968158  -0.00066258     18556.07
        9202     1.001156     1.967495 -0.0007757829     18557.49
        9203     1.001262     1.966979 -0.0006158751     18556.93
        9204     1.001339     1.966131 -0.0006107518     18559.13
        9205     1.001389     1.965695 -0.0006497055     18559.88
        9206     1.001319     1.965052 -0.0006658174     18561.31
        9207     1.001562      1.96438 -0.0006940906     18562.91
        9208     1.001898     1.963467 -0.0007628735     18563.07
        9209     1.002232     1.962918 -0.000752951     18566.45
        9210     1.002405     1.962001 -0.0006561492      18569.7
        9211     1.002464     1.961368 -0.000729643     18572.07
        9212     1.002636     1.960843 -0.0006634609     18574.66
        9213      1.00278         1.96 -0.0006708072     18574.92
        9214     1.002867     1.959347  -0.00073103     18575.75
        9215     1.002893     1.958685 -0.0006909721     18576.71
        9216     1.002872     1.957919 -0.0006936506     18578.77
        9217     1.002903     1.957236 -0.0007084925     18580.58
        9218     1.003145     1.956572 -0.0007305749     18581.19
        9219     1.003423     1.955851 -0.0007739171     18583.28
        9220      1.00347     1.954996 -0.0007530802     18583.78
        9221     1.003549      1.95414 -0.0007679531     18585.27
        9222     1.003244      1.95356 -0.0007516023     18586.06
        9223     1.002958     1.952779 -0.0006458686     18588.51
        9224     1.002693      1.95199 -0.0007494477     18590.08
        9225      1.00253     1.951557 -0.0007345436     18591.92
        9226       1.0026     1.950562 -0.0007106596     18593.05
        9227     1.002658     1.949841 -0.0007782532      18595.3
        9228     1.002765     1.949147 -0.0007194072     18597.51
        9229     1.002763     1.948444 -0.0007469067     18598.89
        9230     1.002844     1.947685 -0.0007734433     18600.11
        9231     1.002843     1.946853 -0.0007292403     18599.94
        9232     1.002497     1.946053 -0.0007410287     18600.25
        9233     1.002285     1.945527 -0.0006596248     18600.81
        9234     1.001979      1.94472 -0.0006072995     18600.54
        9235      1.00155     1.944215 -0.0007121758     18600.88
        9236     1.001086     1.943624 -0.0007192955     18601.99
        9237     1.000947     1.942678 -0.0007477566     18603.72
        9238     1.000943     1.941843 -0.0007777453     18604.85
        9239     1.001035     1.941224 -0.0007541603     18605.18
        9240     1.001344     1.940513 -0.0007024983     18606.89
        9241     1.001698     1.939662 -0.0006454279     18609.55
        9242     1.001646     1.939033 -0.0006852819     18609.19
        9243      1.00148     1.938642 -0.0006926348     18609.62
        9244     1.001372     1.937772 -0.0007056577      18609.4
        9245     1.001314     1.936891 -0.0007552451     18608.07
        9246     1.001239     1.936211 -0.0007185258     18606.42
        9247     1.001196     1.935621 -0.0006986443      18602.7
        9248      1.00132     1.934898 -0.000732663     18592.11
        9249     1.001938     1.934096 -0.0006473918     18552.12
        9250     1.002921      1.93328 -0.0006665061     18430.05
        9251     1.001016     1.933031 -0.0006670566     18372.95
        9252     1.000632     1.932232 -0.0007254112     18493.19
        9253     1.001262     1.931428 -0.0006758923     18552.16
        9254     1.002485     1.930378 -0.0006721159     18475.71
        9255     1.001435     1.930328 -0.0006113793     18389.15
        9256     1.001391     1.929544 -0.000548589     18489.71
        9257     1.001321     1.928983 -0.0007184056     18584.21
        9258     1.000991     1.928184 -0.0007160093     18628.65
        9259     1.000835     1.927454 -0.0007645099     18639.03
        9260     1.000581     1.926679 -0.0007247379     18642.54
        9261     1.000245     1.925925 -0.0007089572     18644.62
        9262     1.000238     1.925285 -0.0006448299     18647.03
        9263     1.000423     1.924618 -0.0005911416     18648.86
        9264     1.000369       1.9241 -0.0007304011     18650.93
        9265      1.00026      1.92356 -0.0006828472     18651.58
        9266     1.000201     1.922363 -0.0006073877     18650.79
        9267     1.000239     1.921887 -0.0006944538     18650.32
        9268     0.999858     1.921671 -0.000523989     18650.83
        9269    0.9996263     1.920782 -0.0006149232     18652.57
        9270    0.9995272     1.920267 -0.0006943372     18654.36
        9271    0.9994449     1.919427 -0.0006109945      18654.3
        9272    0.9996356     1.918893 -0.0006959561     18656.56
        9273    0.9999363     1.918338 -0.0006652255     18659.52
        9274    0.9999166     1.917484 -0.0005940608     18660.73
        9275    0.9999801     1.916766 -0.0006112175      18660.5
        9276     1.000014     1.916517 -0.0005524366     18659.51
        9277     1.000026     1.915893 -0.0005580383     18660.82
        9278      1.00042     1.915274 -0.0006617092      18663.6
        9279     1.000873     1.914534 -0.0006714854     18665.34
        9280     1.001022      1.91387 -0.0007004152     18665.87
        9281     1.001372     1.913207 -0.0006555688     18668.04
        9282     1.001594     1.912472 -0.0006463434      18668.8
        9283     1.001707     1.911912 -0.0006043748     18669.02
        9284     1.001616     1.911285 -0.000607484     18669.84
        9285     1.001231      1.91079 -0.0006080655     18671.41
        9286     1.000827     1.910042 -0.0006324462     18673.12
        9287     1.000042      1.90948 -0.0006180534     18673.97
        9288    0.9995663     1.908755 -0.0006337856     18675.58
        9289    0.9994223     1.908318 -0.0006130721     18677.11
        9290    0.9995174     1.907507 -0.0005958532      18676.9
        9291    0.9995622     1.907027 -0.0005473608     18677.54
        9292    0.9994732     1.906372 -0.0005359299        18678
        9293      0.99933     1.906128 -0.0005967713     18678.53
        9294    0.9994996     1.905363 -0.0005053474     18680.75
        9295    0.9995729      1.90464 -0.0006167859     18681.96
        9296    0.9998028      1.90435 -0.0006149713      18683.5
        9297    0.9998483     1.903661 -0.0005281057     18683.49
        9298    0.9997935     1.902904 -0.0006059209     18684.59
        9299    0.9998116     1.902528 -0.0005672103     18686.68
        9300     1.000226     1.901927 -0.0005418694     18689.72
        9301    0.9999616     1.901392 -0.0005497664     18689.29
        9302    0.9997582     1.900736 -0.0006030432     18690.75
        9303    0.9998723     1.900329 -0.0005573835      18691.1
        9304     1.000231     1.899514 -0.0005362424     18691.42
        9305     1.000424     1.899163 -0.0005941122     18690.94
        9306     1.000557     1.898591 -0.0004905168     18690.61
        9307      1.00069     1.897952 -0.000556517     18692.63
        9308     1.000694     1.897552 -0.0005440053     18692.36
        9309     1.000851     1.896937 -0.0005157776     18694.36
        9310     1.000541     1.896415 -0.0006443946      18694.6
        9311     1.000413     1.895889 -0.0005902764     18694.77
        9312     1.000679     1.894975 -0.0005974791     18695.52
        9313     1.001005     1.894576 -0.0006089269     18696.92
        9314     1.001019     1.894025 -0.0005494837     18697.79
        9315     1.000942     1.893454  -0.00058418     18698.66
        9316     1.000576     1.892777 -0.0005701024     18699.86
        9317     1.000277     1.892239 -0.0006236439      18701.6
        9318     1.000229     1.891745 -0.0006011771     18705.22
        9319     1.000227     1.890959 -0.0005942971     18706.58
        9320     1.000345     1.890372 -0.0005900616     18705.89
        9321     1.000299     1.889862 -0.0005487407      18704.2
        9322     1.000128     1.889385 -0.0005227046     18702.88
        9323     1.000202     1.888764  -0.00057338     18704.02
        9324     1.000347     1.888281 -0.0005942814     18705.69
        9325     1.000369     1.887568 -0.0006104457     18706.83
        9326     1.000444     1.887007 -0.0006688193     18708.25
        9327     1.000738     1.886322 -0.0006163513     18710.73
        9328     1.000966     1.885606 -0.0005872623     18711.39
        9329     1.001029     1.885103 -0.0005865154     18713.12
        9330     1.001081     1.884658 -0.0005572116     18714.43
        9331     1.001423     1.883976 -0.000565592     18715.72
        9332     1.001805     1.883377 -0.0006349871     18713.88
        9333      1.00228      1.88284 -0.0005950805     18714.06
        9334     1.002391     1.882118  -0.00058097     18713.81
        9335      1.00217     1.881596 -0.0005614003     18716.12
        9336     1.001912     1.881053 -0.0005909703     18719.64
        9337     1.001633     1.880595 -0.0006107836     18722.05
        9338     1.001334     1.879755 -0.0006381853     18722.93
        9339     1.001332     1.879153 -0.0006976443     18722.94
        9340      1.00156     1.878501 -0.0006055185      18722.1
        9341     1.002044     1.877804 -0.0005906578     18721.95
        9342     1.002367     1.877332 -0.0005735647     18721.97
        9343     1.002567      1.87679 -0.0005556333     18721.24
        9344     1.002831     1.876206 -0.0006128162     18723.14
        9345     1.003073     1.875582 -0.000608594     18723.71
        9346     1.003172     1.874881 -0.0006359497      18723.7
        9347     1.003049     1.874356 -0.0006151244     18725.35
        9348     1.003027     1.873662 -0.0006104938     18726.37
        9349     1.003348     1.873121 -0.0005677607     18725.09
        9350     1.003761     1.872439 -0.0005487065     18721.01
        9351      1.00367     1.872085 -0.0005697679     18717.82
        9352     1.003479     1.871468 -0.0005786574     18720.03
        9353     1.003183     1.870842 -0.0006854982     18723.38
        9354      1.00278     1.870125 -0.0005803739     18725.22
        9355     1.002263     1.869343 -0.0006256342     18726.91
        9356     1.002011     1.869146 -0.0006367296      18730.4
        9357     1.001974      1.86834 -0.0006189822     18734.64
        9358     1.001947     1.867578 -0.000730902     18736.46
        9359     1.001781     1.866867 -0.0007205089     18735.89
        9360     1.001544     1.866223 -0.0007001768      18734.3
        9361     1.001354     1.865458 -0.0005876505     18731.44
        9362     1.001401     1.864777 -0.0006227747     18728.49
        9363      1.00139     1.864516 -0.000518352     18729.11
        9364     1.001779     1.863731 -0.0005101763     18732.07
        9365     1.002059     1.863384 -0.0005960045     18732.46
        9366     1.002182     1.862736 -0.0005681313     18733.67
        9367     1.001952     1.862132 -0.0006284292     18737.01
        9368     1.001595     1.861459 -0.0006260835     18741.19
        9369     1.001666      1.86087 -0.0006059917     18744.36
        9370     1.001631     1.860232 -0.0006202659     18743.74
        9371     1.001718     1.859708 -0.000605703     18745.37
        9372     1.001857     1.858978 -0.0006051783     18747.32
        9373     1.001649     1.858448 -0.0005914849     18747.74
        9374     1.001481     1.857811 -0.0005469252     18747.37
        9375     1.001431     1.857342 -0.0005650221     18745.46
        9376     1.001309      1.85679 -0.0005609975     18745.62
        9377     1.001411     1.856188 -0.0005778875     18746.71
        9378     1.001594     1.855567 -0.0005722925     18748.68
        9379     1.001664     1.855031 -0.0006346061     18750.22
        9380     1.001754     1.854501 -0.000590954     18751.42
        9381     1.001913     1.853649 -0.0006694858     18751.04
        9382      1.00186     1.853203 -0.0006729878     18751.79
        9383     1.001699     1.852353 -0.0005852944     18753.01
        9384     1.001501     1.851809 -0.0006425858     18754.14
        9385     1.001347     1.851308 -0.0006226329     18754.97
        9386     1.001555     1.850633 -0.0006175883     18756.43
        9387     1.001578     1.849862 -0.0006475108     18756.71
        9388     1.001526     1.849339 -0.0005670804     18757.47
        9389     1.001702     1.848718 -0.0005735795     18757.15
        9390     1.001893     1.848365 -0.0006100837     18756.43
        9391     1.001697     1.847568 -0.0005999566     18755.09
        9392     1.001407     1.846898 -0.0006567568     18754.19
        9393     1.001064     1.846318 -0.0005497622     18753.73
        9394     1.000851     1.845738 -0.0005624318     18753.88
        9395     1.000493     1.845369 -0.0006017986     18755.06
        9396     1.000007     1.844649 -0.0006285888     18756.88
        9397    0.9994643     1.843911 -0.0006960378     18756.69
        9398    0.9992849     1.843223 -0.0006822866     18756.41
        9399     0.999447     1.842585 -0.0006253091     18758.72
        9400    0.9996778     1.841919 -0.0005965056     18759.64
        9401    0.9998244      1.84141 -0.000628176      18759.4
        9402     0.999862     1.840837 -0.0005954794     18758.44
        9403     1.000259     1.840072 -0.0006086166      18760.9
        9404     1.000229     1.839538 -0.0006209876     18761.58
        9405     1.000193     1.838975 -0.0006039808     18761.62
        9406      1.00052     1.838353 -0.0006301022     18764.16
        9407     1.000942     1.837656 -0.0005772131     18764.62
        9408      1.00121     1.837017 -0.0006149908     18763.75
        9409     1.001428     1.836666 -0.000581851     18764.31
        9410     1.001323     1.835893 -0.0006132102      18766.1
        9411     1.000903     1.835329 -0.0006198219     18766.24
        9412     1.000679     1.834564 -0.0005941098      18766.3
        9413      1.00065     1.834187 -0.0005726616     18767.52
        9414     1.000616     1.833517 -0.0005748183     18768.69
        9415     1.000377     1.833038 -0.0006217873      18769.5
        9416     1.000302     1.832265 -0.0006303461     18769.95
        9417     1.000009       1.8317 -0.0006364107     18768.96
        9418    0.9998291     1.830996 -0.000592998     18767.46
        9419    0.9997058     1.830492 -0.0006434078     18766.76
        9420    0.9995219     1.829893 -0.0006364497     18766.27
        9421    0.9992612     1.829126 -0.000631775     18765.04
        9422    0.9991246      1.82845 -0.0006271696     18764.85
        9423    0.9989047     1.827965 -0.0006309975     18763.71
        9424    0.9986355     1.827384 -0.0005894337     18763.87
        9425     0.998687     1.826602 -0.0006005997     18763.94
        9426    0.9988281     1.826092 -0.0005939704      18764.2
        9427    0.9985626     1.825563 -0.0005571527     18764.37
        9428    0.9980863     1.825008 -0.000604155     18763.48
        9429    0.9978139     1.824374 -0.0006433192     18762.74
        9430    0.9977506     1.823675 -0.0006629922     18763.17
        9431    0.9975508      1.82299 -0.0006954596     18763.75
        9432    0.9973159     1.822357 -0.000655825     18763.64
        9433    0.9971501     1.821592 -0.0006216529     18764.95
        9434    0.9971135     1.821052 -0.0006289065     18764.67
        9435    0.9971998     1.820503 -0.0005980315     18765.32
        9436    0.9971735     1.819841 -0.0005962742     18765.34
        9437    0.9972512       1.8192 -0.0005906091     18764.89
        9438    0.9974186     1.818667 -0.0005952734     18764.86
        9439    0.9978593     1.818141 -0.0005684853     18765.57
        9440    0.9981108      1.81746 -0.0006275334     18765.22
        9441    0.9979473     1.816926 -0.0006034851     18765.56
        9442    0.9981468     1.816157 -0.0006008945     18765.92
        9443    0.9981444     1.815727 -0.0005692091     18764.89
        9444    0.9981331     1.815056 -0.0005409708     18764.14
        9445    0.9982638     1.814649 -0.0005983641     18763.72
        9446    0.9983105     1.813993 -0.0005764227     18763.56
        9447    0.9983484     1.813333 -0.0006442023     18764.21
        9448    0.9985404     1.812751 -0.0006082043     18764.51
        9449    0.9986692     1.812072 -0.0005817101     18764.95
        9450    0.9989809      1.81156 -0.0006227764     18764.02
        9451    0.9990229     1.811006 -0.0005899309      18762.4
        9452    0.9988656     1.810259 -0.0005893161     18762.56
        9453    0.9986202     1.809712 -0.0006305749     18761.63
        9454    0.9986718     1.809203 -0.0005890173     18761.77
        9455    0.9989701     1.808484 -0.0005623777     18761.66
        9456    0.9993064     1.807903 -0.0005961228     18761.59
        9457    0.9994612     1.807463 -0.0005072281     18758.76
        9458    0.9997949     1.806818 -0.0005194327      18759.4
        9459    0.9995813     1.806455 -0.0005335807     18758.54
        9460    0.9993495     1.805826 -0.0005786222     18759.15
        9461    0.9992353     1.805329 -0.0006361646     18760.83
        9462    0.9993183     1.804504 -0.0006353761     18762.26
        9463    0.9991447      1.80391 -0.0006244829     18763.53
        9464     0.998621     1.803284 -0.0005042551     18762.57
        9465      0.99822     1.802831 -0.0004764485     18763.85
        9466    0.9977056     1.802487 -0.0005301629     18765.07
        9467    0.9973911     1.802005 -0.0005264785     18765.47
        9468     0.997017     1.801163 -0.0005674022     18765.15
        9469    0.9968747     1.800725 -0.0006113235     18764.91
        9470    0.9970791     1.800217 -0.0005527156     18765.64
        9471    0.9970834     1.799559 -0.0005614851     18764.26
        9472    0.9970637     1.798953 -0.0006033242     18762.96
        9473    0.9970964     1.798479 -0.0005420917     18761.86
        9474    0.9968726     1.797804 -0.000564186     18761.31
        9475    0.9964401     1.797391 -0.0005609303      18758.9
        9476    0.9961858     1.796696 -0.0005328986     18758.18
        9477    0.9960983     1.796235 -0.0005975002     18758.38
        9478    0.9961394     1.795672 -0.0005775227     18757.78
        9479    0.9964367     1.795001 -0.0005271167      18757.5
        9480    0.9967735     1.794386 -0.0005169455     18756.81
        9481     0.996736     1.794127 -0.000511248     18756.71
        9482    0.9965427     1.793605 -0.0004642474     18754.97
        9483    0.9962969     1.792956 -0.0006158001     18751.54
        9484    0.9962925     1.792529 -0.0006121025     18742.72
        9485    0.9962063     1.791663 -0.0005766253     18722.05
        9486    0.9960888     1.791156 -0.0006307524     18714.84
        9487     0.996336     1.790649 -0.0005341159     18722.72
        9488    0.9965908     1.790006 -0.0005346823      18732.2
        9489    0.9962598     1.789527 -0.0006320527     18739.47
        9490    0.9961095     1.789018 -0.0005082507     18742.04
        9491    0.9960056     1.788121 -0.0005840897     18730.93
        9492    0.9958584     1.787973 -0.0006070484     18712.97
        9493    0.9961569     1.787191 -0.000508098     18712.52
        9494    0.9961979     1.786589 -0.0005907694     18719.76
        9495    0.9961388     1.786089 -0.000572977     18731.42
        9496    0.9959761      1.78561 -0.0005458965     18739.99
        9497    0.9957817     1.784899 -0.0005305622     18740.95
        9498    0.9954587     1.784406 -0.0005424319     18740.39
        9499    0.9952099     1.783967 -0.0004882118     18739.45
        9500    0.9952099     1.783967 -0.0004882118     18739.45
