# This file has been produced by extranormal (v 1.0.1 - February 23, 2017)
# O. Roudenko - Synchrotron SOLEIL. Covered by GPL licence.
#Data from HDF File: /nfs/ruche-rock/rock-soleil/com-rock/2022/Projets/20220725_Gilles/op6_cell4_alone/op6_cell4_pos1_close/op6_cell4_pos1_close_0029/op6_cell4_pos1_close_0029_17349.nxs to op6_cell4_pos1_close_0029_17372.nxs
#Time at start=2022-07-28 22:48:28.381
#Time from start (seconds)=64.8047201723
#Sample temperature (C)=nan
# Normalization -------------
# pivot spectrum: LNO_pristine_av1100_00001.txt
# E0=8332.88   Eshift=-0.320517873788
# E0_pivot = 8349.6
# pre-edge params: from E0_pivot-240.0 to E0_pivot-50.0
# pre-edge range: [8109.6, 8299.6]
# post-edge params: from E0_pivot+70.0 to E0_pivot+1155.0
# post-edge range: [8419.6, 9500.0]
# I jump at E0_pivot = 0.798496363062
# shifted energy	normalized	reference	ref.derivative	I0
        8060  0.002024498      1.04452 -0.0004979062     14936.22
        8065  0.003096301      1.04204 -0.0004695861     14956.82
        8070   0.00332616      1.03983 -0.0004662312     14981.18
        8075 0.0009938868     1.037447 -0.0004487904     15004.43
        8080  0.001800768     1.035195 -0.0004555467     15026.55
        8085  0.001970582     1.033064 -0.0004572706     15045.41
        8090  0.001692834     1.030719 -0.0004387151      15068.1
        8095  0.002278534     1.028302 -0.000453665     15092.42
        8100  0.001614852     1.026421 -0.0004417653     15114.67
        8105 0.0007572547     1.023991 -0.0004187837     15137.01
        8110 0.0004529061     1.021883 -0.0004346028     15156.44
        8115 -0.0002860578     1.019926 -0.0004265921     15176.39
        8120 -0.0007538973     1.017729 -0.0004183201     15196.01
        8125 -0.0001080838     1.015459 -0.0004303851     15218.11
        8130 0.0009203447     1.013517 -0.0004169386     15239.92
        8135  0.002282234     1.011318 -0.000414488     15261.57
        8140 0.0004897353      1.00939 -0.0004159297     15280.38
        8145 -0.0004909421     1.007169 -0.0004073293     15301.88
        8150 -0.0003727796     1.005198 -0.0004072557     15320.95
        8155 -0.001761522     1.003172 -0.0004100001     15342.61
        8160 -0.001158616     1.001245 -0.0004291357     15362.06
        8165  -0.00114892    0.9989694 -0.0004252782     15389.57
        8170  0.001138125    0.9966157 -0.0004383123     15407.93
        8175  0.000900919    0.9946662 -0.0004311621     15431.47
        8180 0.0008847865    0.9924789 -0.0004170755     15450.47
        8185 0.0007904012    0.9903462 -0.0004195295     15471.91
        8190 0.0002707638    0.9882742 -0.0004133752      15493.7
        8195 0.0001883335    0.9862756 -0.0004178134     15515.56
        8200 -0.0003142436    0.9842114 -0.0004116557     15532.59
        8205 -0.0003084587    0.9819899 -0.0004169956     15556.71
        8210 0.0006346205    0.9800411 -0.0004125024     15572.98
        8215 -0.001022335    0.9779357 -0.0004073282      15594.3
        8220 -0.001209081    0.9759614 -0.0004045052     15616.79
        8225  -0.00155089    0.9738433 -0.0004043779     15638.33
        8230 -0.0007528428     0.971951 -0.0004011368     15659.73
        8235 3.543581e-05    0.9698481 -0.0003988586     15677.18
        8240 0.0001343839    0.9679386 -0.0003986872     15699.21
        8245 0.0007381478    0.9658662 -0.0003871433     15720.76
        8250 0.0004537395    0.9639772 -0.0003755723     15739.21
        8255 -6.34374e-06    0.9621052 -0.0003582611     15756.94
        8260 -0.0005397057    0.9604272 -0.0003490211     15777.46
        8265 0.0002321116     0.958701 -0.0003429345     15798.14
        8270 -0.0003463731    0.9569968 -0.000336559     15819.48
        8275 -3.717749e-05    0.9552466  -0.00033536     15836.58
        8280 -0.0001585045     0.953696 -0.0003343296     15855.42
        8285 8.392968e-06    0.9519938 -0.0003140135     15867.54
        8290 0.0006797138    0.9503102 -0.000298054     15881.02
        8295  0.001253675    0.9489663 -0.000276875     15890.48
        8300  0.003131617    0.9478166 -0.0001266534     15820.13
      8300.2  0.003206459    0.9477683 4.054715e-06     15810.69
      8300.4  0.003181007    0.9477658 3.030241e-05     15802.23
      8300.6  0.003061549    0.9478512 2.847005e-05     15794.91
      8300.8  0.002947889    0.9478408 -2.918838e-05     15789.15
        8301  0.002904272     0.947791 -0.0002024433     15784.88
      8301.2  0.002886731    0.9477425 -0.0002428429     15781.68
      8301.4  0.002827289    0.9476892 -0.0002767423     15779.16
      8301.6   0.00280725    0.9476465 -0.0003534969     15777.52
      8301.8  0.002845504    0.9475696 -0.0004240387      15776.5
        8302  0.002895731    0.9474597 -0.0005537966     15775.66
      8302.2  0.003024031      0.94735 -0.0005181086     15775.08
      8302.4  0.003159749    0.9472035 -0.000535223     15774.12
      8302.6  0.003288852    0.9471552 -0.0006045468     15772.14
      8302.8   0.00339768    0.9470315 -0.0004687106     15769.25
        8303  0.003503494    0.9468664 -0.0003877665     15765.31
      8303.2   0.00358111    0.9468285 -0.0002275292     15760.42
      8303.4  0.003719834    0.9468449 9.533544e-05     15754.23
      8303.6  0.003891815    0.9468495 0.0002780857     15746.05
      8303.8  0.003993767    0.9469426 0.0002578439      15735.1
        8304  0.004178976     0.947051 0.0001656204     15721.71
      8304.2  0.004490752    0.9470512 -9.608417e-06     15704.37
      8304.4  0.004951416     0.946982 -0.0002477259     15682.32
      8304.6  0.005449328    0.9469349 -0.0003895961     15653.23
      8304.8  0.006046753    0.9468528 -0.0004635585     15615.11
        8305  0.006726908    0.9467395 -0.0005547518     15566.77
      8305.2  0.007354437    0.9466111 -0.0005917346      15507.4
      8305.4  0.007883271    0.9464911 -0.0005375071     15438.22
      8305.6  0.008235086    0.9463794 -0.000327472     15364.05
      8305.8   0.00832741    0.9463095 -3.493875e-05     15290.78
        8306  0.008146312    0.9463491 0.0002812407     15224.08
      8306.2  0.007625154    0.9464632 0.0005055956     15169.01
      8306.4  0.006936233    0.9466044 0.0006744003     15130.13
      8306.6  0.006209526     0.946714 0.0006342522     15110.51
      8306.8  0.005484879    0.9468887 0.0004458907     15111.44
        8307  0.004895074    0.9469706 0.0003317606     15129.85
      8307.2   0.00437698    0.9469611 0.0002975088      15160.4
      8307.4  0.003979355    0.9469794 0.0004785008     15201.89
      8307.6  0.003546492    0.9471267 0.0006616322     15252.27
      8307.8  0.003139597    0.9473534 0.0007425883     15307.99
        8308  0.002815766    0.9474904 0.0005834185     15366.74
      8308.2  0.002521367    0.9475735 0.0002381726     15428.84
      8308.4  0.002359784    0.9475934 -7.495073e-05      15494.8
      8308.6  0.002309045    0.9475439 -0.0002809582     15562.31
      8308.8   0.00242819    0.9474305 -0.000476794     15627.36
        8309  0.002683503    0.9473487 -0.0006468982     15685.47
      8309.2  0.002997728     0.947212 -0.0007229623     15733.79
      8309.4   0.00348943    0.9470264 -0.0007626899     15770.92
      8309.6  0.004061184    0.9468521 -0.0006629113     15794.79
      8309.8  0.004552173    0.9467386 -0.0003300904      15805.6
        8310  0.004923703    0.9466816 3.779312e-05     15806.46
      8310.2   0.00508884    0.9467623 0.0002097044     15800.76
      8310.4  0.005104996    0.9468823 0.0003000256     15793.29
      8310.6  0.005122499    0.9469063 8.298978e-05     15787.84
      8310.8  0.005109275    0.9469217 -0.0002115518     15785.87
        8311  0.005076677    0.9468287 -0.0004297745     15788.19
      8311.2  0.005136431    0.9467131 -0.0006559799     15794.05
      8311.4  0.005415598    0.9465625 -0.0006122011     15800.76
      8311.6  0.005920528    0.9463969  -0.00045314     15801.91
      8311.8  0.006304477     0.946339 -0.000125895     15794.52
        8312  0.006491922    0.9463506 0.0003205889      15781.5
      8312.2  0.006645433    0.9464618 0.0006320321     15767.14
      8312.4   0.00673903    0.9466533 0.0006444722     15753.28
      8312.6  0.006686972    0.9468446 0.0003886527     15741.17
      8312.8  0.006690103    0.9468662 -3.061276e-06     15732.33
        8313  0.006870111    0.9467727 -0.0004018716     15724.06
      8313.2  0.007329566    0.9466509 -0.0007290946      15710.8
      8313.4  0.007999979    0.9465231 -0.0008353448     15686.86
      8313.6  0.008803069    0.9462829 -0.0007335181      15646.7
      8313.8  0.009598242    0.9461044 -0.0005208838     15588.36
        8314   0.01025604    0.9460641 -6.827715e-05     15516.35
      8314.2   0.01066978    0.9461064 0.0003382392     15436.62
      8314.4   0.01080779    0.9462283 0.0006474103     15355.76
      8314.6   0.01064927     0.946375 0.0008207222      15282.3
      8314.8   0.01026222     0.946582  0.001041901     15222.69
        8315  0.009710925     0.946763  0.001303074     15183.55
      8315.2  0.009066948    0.9470618  0.001423819     15167.93
      8315.4  0.008486006    0.9474175  0.001458155      15172.5
      8315.6  0.007997161    0.9477211   0.00122267     15193.37
      8315.8  0.007752923    0.9479295 0.0009038397     15226.45
        8316  0.007713554    0.9480399 0.0006092511     15265.93
      8316.2  0.007770826    0.9481406  0.000452278     15308.19
      8316.4  0.007780697    0.9482085 0.0005244137     15351.29
      8316.6  0.007680004    0.9482913 0.0006061332     15395.27
      8316.8  0.007526498    0.9484594 0.0006595212     15440.78
        8317  0.007355076    0.9486255 0.0006050304     15487.55
      8317.2  0.007192145    0.9487361 0.0004097473     15534.49
      8317.4  0.007047276    0.9487753 0.0003342556     15581.28
      8317.6   0.00698124    0.9487872 0.0003051786     15627.47
      8317.8  0.007082948    0.9488929 0.0003787249     15672.42
        8318  0.007232711    0.9489802 0.0003648075     15712.89
      8318.2  0.007321288    0.9490783 0.0001701937     15747.37
      8318.4  0.007445325    0.9490791 0.0001355677      15776.4
      8318.6  0.007574531     0.949029 0.0001789899     15800.76
      8318.8  0.007700481    0.9490887 0.0003339628     15821.22
        8319  0.007807802    0.9492215 0.0005937609     15838.44
      8319.2  0.007949307    0.9493463 0.0007309924     15852.68
      8319.4  0.007988543     0.949504 0.0007033782     15864.29
      8319.6  0.007984663    0.9496735 0.0005390845     15874.64
      8319.8   0.00797485    0.9497842 0.0004282157     15883.63
        8320  0.008088002    0.9497775 0.0005039325     15892.06
      8320.2    0.0082092    0.9498466  0.000572325     15899.88
      8320.4  0.008344601    0.9500766 0.0008398565     15907.01
      8320.6  0.008506856    0.9502421  0.001226406     15913.11
      8320.8  0.008662604    0.9504494  0.001263403     15918.54
        8321  0.008761907    0.9508277  0.001266809     15923.73
      8321.2  0.008775043    0.9510873  0.001224811     15928.08
      8321.4  0.008861496    0.9512555 0.0009702923     15932.63
      8321.6  0.008991844    0.9514293 0.0008352363      15937.7
      8321.8  0.009111441     0.951604 0.0008769415     15943.23
        8322  0.009148502    0.9517555  0.001000313     15948.45
      8322.2  0.009179849    0.9519571   0.00113217      15953.8
      8322.4  0.009204784    0.9522295  0.001425822     15959.66
      8322.6  0.009222575    0.9525097  0.001648019     15966.01
      8322.8  0.009182977    0.9528962   0.00171958     15972.84
        8323  0.009109117    0.9532755  0.001847234     15980.25
      8323.2  0.009020314    0.9536052  0.001871277     15987.87
      8323.4  0.009000905    0.9539875  0.001898693      15995.9
      8323.6     0.009042    0.9543932    0.0019012     16004.07
      8323.8  0.009116331    0.9547944  0.001810692     16011.68
        8324  0.009234903    0.9551261  0.001791648     16018.54
      8324.2  0.009330274     0.955436   0.00178487     16024.62
      8324.4  0.009367002    0.9558265  0.001910976     16029.66
      8324.6  0.009407635    0.9562223  0.002147721      16033.8
      8324.8  0.009560652    0.9566549  0.002359353     16037.51
        8325  0.009673851    0.9571542   0.00261469        16040
      8325.2  0.009761623     0.957714  0.002754365     16041.97
      8325.4  0.009886627    0.9583141  0.002815866     16043.93
      8325.6    0.0100258    0.9588584  0.002960333     16045.31
      8325.8   0.01023921    0.9594069  0.003178551     16046.37
        8326    0.0104918    0.9600823   0.00351338     16047.65
      8326.2   0.01076342    0.9608569  0.003943239     16048.87
      8326.4   0.01101171    0.9616691  0.004248786     16049.92
      8326.6   0.01127336    0.9625615  0.004457051     16051.55
      8326.8   0.01147941    0.9634813  0.004741571      16052.9
        8327   0.01162268    0.9644226  0.004927446     16053.73
      8327.2    0.0117745    0.9654624  0.005123004     16054.91
      8327.4   0.01195213    0.9665035  0.005458001     16055.67
      8327.6   0.01216269    0.9675797  0.005908477     16056.56
      8327.8   0.01237003     0.968789  0.006518942     16057.96
        8328   0.01249984    0.9701891  0.007151038     16058.88
      8328.2   0.01260976    0.9717186  0.007699633     16059.68
      8328.4   0.01276573    0.9733005   0.00805095     16060.71
      8328.6   0.01293904    0.9749487   0.00857372     16061.49
      8328.8   0.01316335    0.9766299  0.009429715     16062.42
        8329   0.01338808    0.9785776   0.01049644     16063.54
      8329.2   0.01357761    0.9808443   0.01190349     16064.42
      8329.4   0.01377276    0.9833458    0.0133766     16065.46
      8329.6   0.01397926    0.9861527   0.01499479     16066.47
      8329.8   0.01419505    0.9892789   0.01717588     16067.24
        8330   0.01444256    0.9928401   0.01986551     16068.31
      8330.2   0.01475736    0.9970865   0.02305486     16069.25
      8330.4   0.01513763     1.002045    0.0270297     16070.02
      8330.6   0.01561944     1.007723   0.03223365     16070.98
      8330.8    0.0160729     1.014464   0.03881938     16071.58
        8331   0.01661238     1.022873   0.04706935     16072.39
      8331.2   0.01727467     1.033101   0.05714121     16073.18
      8331.4   0.01801906     1.045378    0.0683637     16073.63
      8331.6   0.01891872     1.060177   0.08077843     16074.33
      8331.8   0.01991783     1.077564   0.09436675     16074.96
        8332   0.02108048     1.097723    0.1078478     16075.76
      8332.2   0.02238573     1.120872    0.1203651     16075.92
      8332.4    0.0239494     1.146455    0.1310274     16075.98
      8332.6   0.02581592     1.173857    0.1390363     16076.26
      8332.8     0.027817     1.202545    0.1445839     16075.84
        8333   0.03012248     1.232101    0.1475033     16075.78
      8333.2   0.03262291     1.262122     0.147552     16075.53
      8333.4   0.03528923     1.291859    0.1456393     16075.39
      8333.6   0.03805118     1.320587    0.1423088     16075.33
      8333.8   0.04082288     1.348612    0.1381231     16074.94
        8334   0.04358757     1.375969    0.1329948     16074.66
      8334.2   0.04619729     1.402358     0.126603      16074.4
      8334.4   0.04847104     1.426983    0.1186164     16074.23
      8334.6   0.05025801     1.449895    0.1098193     16074.22
      8334.8   0.05148324     1.470862    0.1015641     16074.04
        8335   0.05217148     1.490213   0.09349085     16074.03
      8335.2    0.0524573     1.508234   0.08523331     16074.27
      8335.4   0.05233268     1.524687    0.0769277     16074.13
      8335.6   0.05201483     1.539049   0.06888501      16074.3
      8335.8   0.05166341     1.551755   0.06159484     16074.78
        8336   0.05128728     1.563342   0.05594257     16074.88
      8336.2   0.05106682     1.573963   0.05154718     16075.32
      8336.4   0.05106608     1.583803   0.04750441     16076.37
      8336.6   0.05125629     1.592993   0.04403927     16077.54
      8336.8    0.0516803     1.601346   0.04156234      16078.3
        8337   0.05237249     1.609195   0.04024503     16079.39
      8337.2   0.05328493     1.617053   0.04056679     16080.51
      8337.4   0.05437411     1.625189   0.04231366     16081.31
      8337.6   0.05573078     1.633799   0.04479659     16082.36
      8337.8   0.05727455     1.643045   0.04785549     16083.72
        8338   0.05899722      1.65289   0.05150208     16085.39
      8338.2   0.06084344     1.663473   0.05519299     16086.86
      8338.4   0.06284215     1.675001   0.05851873     16088.24
      8338.6   0.06505374       1.6872     0.061221     16089.97
      8338.8   0.06728465     1.699705   0.06300662     16090.83
        8339    0.0696812      1.71245   0.06419035     16091.64
      8339.2   0.07230893     1.725406   0.06449759     16092.53
      8339.4   0.07518553     1.738552   0.06388432     16093.22
      8339.6   0.07835171     1.751303   0.06255911      16093.8
      8339.8   0.08176759     1.763558   0.06081153     16094.44
        8340   0.08544879     1.775453   0.05940582     16095.17
      8340.2   0.08953109     1.787201   0.05839709     16095.84
      8340.4   0.09408244     1.798828   0.05749752     16096.31
      8340.6   0.09904112     1.810275   0.05688927     16096.56
      8340.8    0.1043647     1.821451   0.05695207     16096.94
        8341    0.1101829     1.832713   0.05793095      16097.3
      8341.2    0.1167766      1.84439   0.06020537     16097.67
      8341.4    0.1242101      1.85662   0.06310252     16098.29
      8341.6    0.1326562     1.869616   0.06613254     16099.06
      8341.8    0.1419671     1.883195   0.06927663      16099.8
        8342    0.1521457     1.897296   0.07313936     16100.44
      8342.2    0.1632308     1.912041    0.0779473      16100.9
      8342.4    0.1757404     1.928127   0.08333138     16101.47
      8342.6     0.189625     1.945553   0.08887153     16102.28
      8342.8    0.2046564     1.963961   0.09381081     16102.74
        8343    0.2205684     1.983139   0.09825747     16103.56
      8343.2    0.2372715     2.003176    0.1022223     16104.56
      8343.4    0.2547946     2.024159    0.1062084     16105.57
      8343.6     0.272963     2.045739    0.1100897     16106.39
      8343.8    0.2916447     2.068105    0.1134634     16106.87
        8344    0.3107442     2.091247    0.1170627     16107.07
      8344.2    0.3300562     2.114929    0.1202266     16106.83
      8344.4    0.3499858     2.139389    0.1230323     16107.09
      8344.6    0.3702612     2.164287    0.1254127     16107.59
      8344.8    0.3905942     2.189673    0.1273075     16108.17
        8345    0.4109883     2.215259    0.1291959      16108.9
      8345.2    0.4318523     2.241235    0.1311805     16109.44
      8345.4    0.4534149     2.267643    0.1326162     16110.26
      8345.6    0.4755017     2.294618    0.1333454     16111.43
      8345.8    0.4977032     2.321352    0.1331607     16112.25
        8346    0.5201152     2.347911    0.1322746     16112.98
      8346.2    0.5426719     2.374172    0.1316894     16113.73
      8346.4    0.5659438     2.400437    0.1311887     16114.74
      8346.6    0.5899449     2.426704    0.1289045     16115.88
      8346.8    0.6145467     2.452862    0.1249149      16116.8
        8347    0.6388601     2.477295    0.1203381     16117.77
      8347.2    0.6630304     2.500369    0.1148691     16118.44
      8347.4    0.6877604     2.522974    0.1093508     16119.17
      8347.6    0.7133133     2.544757    0.1031923     16119.53
      8347.8    0.7391697     2.564776   0.09561535     16119.64
        8348    0.7649793     2.582923   0.08581689     16120.26
      8348.2     0.790778     2.599467   0.07586075     16120.76
      8348.4      0.81612     2.613411   0.06678192     16121.03
      8348.6    0.8414156     2.625465   0.05755709     16121.25
      8348.8    0.8669883     2.636349   0.04925416        16121
        8349     0.892788     2.645512   0.04136081     16120.75
      8349.2    0.9183565     2.652814   0.03320567     16121.12
      8349.4    0.9437001     2.658553   0.02577869     16120.98
      8349.6    0.9692577     2.662913   0.01940925     16120.62
      8349.8    0.9948769     2.666135   0.01372338      16120.6
        8350     1.020776     2.668341  0.008647036     16120.74
      8350.2     1.047265     2.669532  0.004038654     16120.89
      8350.4     1.074102     2.669831 -0.0003066033     16121.13
      8350.6     1.101314     2.669366 -0.003460113     16121.21
      8350.8     1.129258     2.668096 -0.006533108     16121.28
        8351     1.157674     2.666764 -0.008920427     16121.52
      8351.2     1.186195     2.664604  -0.01107365     16122.15
      8351.4     1.214989      2.66223  -0.01315604     16122.35
      8351.6     1.244703     2.659237  -0.01431319      16123.1
      8351.8     1.274799     2.656239  -0.01522989     16123.51
        8352     1.304841     2.653154  -0.01595493     16123.82
      8352.2     1.334459     2.650046  -0.01586112     16123.83
      8352.4     1.363703     2.646473  -0.01518357     16123.87
      8352.6     1.392749      2.64355  -0.01399425     16123.83
      8352.8     1.421602     2.641007  -0.01144562     16123.29
        8353     1.449974     2.638851 -0.009181993     16123.32
      8353.2     1.476622     2.637317 -0.007255807     16123.54
      8353.4       1.5009     2.636205 -0.003862238     16123.83
      8353.6     1.522613     2.635202 0.0002333987     16124.19
      8353.8     1.541478     2.635761  0.004659975     16124.85
        8354     1.556461     2.637504   0.01041295      16125.5
      8354.2     1.567089     2.639933   0.01538769      16126.4
      8354.4     1.572664     2.643533   0.02036466     16127.36
      8354.6     1.572784     2.648071   0.02488188     16128.06
      8354.8     1.568031     2.653795   0.02909857     16128.87
        8355     1.558393     2.659838   0.03268992     16129.63
      8355.2      1.54376     2.666811   0.03499355     16130.01
      8355.4     1.525051     2.674223    0.0380628     16130.71
      8355.6      1.50295      2.68179    0.0401187     16130.87
      8355.8     1.477662     2.690288   0.04163866     16131.79
        8356       1.4502     2.698906    0.0422086     16133.16
      8356.2     1.421471     2.707534   0.04099277     16133.79
      8356.4      1.39228     2.715557   0.03862673     16134.79
      8356.6     1.362622     2.723083    0.0357167     16135.72
      8356.8     1.332835     2.729808   0.03309885     16136.45
        8357     1.303574     2.736107   0.02993827     16137.31
      8357.2     1.276021     2.742036   0.02662153     16138.33
      8357.4     1.250184     2.747033   0.02168634     16139.18
      8357.6     1.226054     2.751105   0.01622508     16140.21
      8357.8     1.203415     2.753456   0.01114611     16141.03
        8358     1.182491     2.755016  0.005340336      16141.8
      8358.2      1.16344      2.75595 0.0008155585     16142.98
      8358.4     1.146511     2.755377 -0.003561986     16143.85
      8358.6     1.131549     2.754109 -0.008290315     16144.64
      8358.8     1.118003     2.752167  -0.01180032     16145.26
        8359     1.105721     2.749318  -0.01467115     16146.14
      8359.2     1.094915     2.745937  -0.01714161      16146.8
      8359.4     1.085593     2.742372  -0.01881267     16147.27
      8359.6     1.077569     2.738453  -0.02018412     16148.11
      8359.8     1.070686     2.734268  -0.02162933      16148.9
        8360     1.064665      2.72979  -0.02236372      16149.6
      8360.2      1.05938     2.725068   -0.0224356     16150.22
      8360.4      1.05488     2.720562  -0.02192326     16150.75
      8360.6     1.051043     2.716319  -0.02102968     16151.29
      8360.8     1.047626     2.712251   -0.0198338     16151.86
        8361     1.044561     2.708245  -0.01884926     16152.83
      8361.2     1.041917     2.704695    -0.018223      16153.9
      8361.4     1.039495      2.70124  -0.01770637     16154.56
      8361.6     1.037259     2.697673  -0.01772033     16154.98
      8361.8     1.035178     2.694079  -0.01786617        16156
        8362     1.033169     2.690519  -0.01736069     16156.81
      8362.2     1.031333     2.686947  -0.01700578     16158.03
      8362.4     1.029575     2.683784  -0.01702121     16159.05
      8362.6     1.027853     2.680475   -0.0171475     16160.08
      8362.8     1.026068     2.676902   -0.0181758     16160.95
        8363     1.024329     2.673229  -0.01896243     16162.25
      8363.2     1.022494     2.669244  -0.01974703     16163.02
      8363.4     1.020635     2.665305   -0.0211198     16163.49
      8363.6     1.018989     2.661104  -0.02227118     16164.92
      8363.8     1.017379     2.656333  -0.02346577     16166.18
        8364     1.015776     2.651427  -0.02539147     16167.16
      8364.2      1.01434     2.646532  -0.02619006     16168.35
      8364.4     1.012979     2.640791  -0.02559576     16169.27
      8364.6     1.011743     2.635381    -0.024727     16170.44
      8364.8     1.010783      2.63095  -0.02333375     16171.68
        8365     1.009998     2.626751   -0.0222847     16172.53
      8365.2     1.009457     2.622124  -0.02249973     16173.77
      8365.4     1.009239     2.617553  -0.02199566     16174.61
      8365.6     1.009305      2.61295  -0.02011671     16175.55
      8365.8     1.009746     2.609154  -0.01787065     16176.66
        8366     1.010628     2.606031  -0.01581014     16177.74
      8366.2      1.01183     2.603257  -0.01439236      16178.8
      8366.4     1.013371     2.600302  -0.01304129     16179.57
      8366.6      1.01521      2.59764  -0.01174942     16180.56
      8366.8      1.01731     2.595598  -0.01025288     16181.75
        8367     1.019661     2.593857 -0.008984409     16182.46
      8367.2     1.022316       2.5921 -0.008239845      16183.2
      8367.4      1.02521     2.590453 -0.007848678     16184.32
      8367.6     1.028208     2.589006 -0.007251705     16185.44
      8367.8     1.031199     2.587578 -0.007021152     16186.65
        8368      1.03432     2.586298 -0.006819732     16187.88
      8368.2     1.037377     2.584836  -0.00591567     16188.98
      8368.4      1.04036      2.58355 -0.004868245     16190.02
      8368.6     1.043055     2.582846  -0.00379867     16191.32
      8368.8     1.045395     2.582404 -0.003043359     16192.41
        8369     1.047442     2.581797 -0.002825697      16193.3
      8369.2     1.049128     2.581115 -0.002349818     16194.25
      8369.4      1.05032     2.580585 -0.001934289     16195.23
      8369.6     1.050953     2.580524 -0.001040008     16196.43
      8369.8     1.051093     2.580249 -0.000238482     16197.18
        8370     1.050733     2.580283 0.0001517797     16197.94
      8370.2      1.04984     2.580394  0.001605238     16198.72
      8370.4     1.048501     2.580645  0.002811787      16199.7
      8370.6     1.046617     2.581534  0.004474214     16200.53
      8370.8     1.044288     2.582533  0.005923289     16200.99
        8371      1.04168     2.583974  0.006764148     16201.73
      8371.2     1.038698     2.585384  0.007679069     16202.42
      8371.4     1.035462     2.586945   0.00888632     16203.29
      8371.6     1.031977     2.588676   0.01016697     16204.55
      8371.8     1.028206     2.591083   0.01113654     16205.42
        8372     1.024338     2.593518   0.01264807     16206.11
      8372.2     1.020421     2.595854   0.01323002     16206.92
      8372.4     1.016321     2.598795   0.01412473     16207.71
      8372.6     1.012127     2.601667    0.0158075     16208.65
      8372.8     1.007831     2.604817   0.01675042     16209.42
        8373     1.003317       2.6085    0.0177702     16209.93
      8373.2    0.9987305     2.612195   0.01886951     16210.56
      8373.4    0.9941268     2.615883   0.02000193     16211.08
      8373.6    0.9894705     2.619913   0.02098526     16211.65
      8373.8    0.9846294     2.624502   0.02130811      16212.1
        8374    0.9796788     2.628983   0.02184904     16212.45
      8374.2    0.9747008     2.632929   0.02219964     16212.65
      8374.4    0.9696684     2.637392   0.02284086     16213.46
      8374.6    0.9644108     2.642261   0.02412723     16214.05
      8374.8     0.959036     2.647256   0.02498163     16214.41
        8375    0.9537204     2.652231   0.02582355     16215.45
      8375.2    0.9484019     2.657378   0.02653133        16216
      8375.4    0.9430394      2.66292   0.02723892     16216.44
      8375.6    0.9375492     2.668481    0.0276282     16216.74
      8375.8    0.9319242     2.674022   0.02764607     16217.37
        8376    0.9263817      2.67948   0.02744703     16218.36
      8376.2    0.9210474     2.685037   0.02764148     16219.09
      8376.4    0.9159063     2.690439    0.0284468     16220.01
      8376.6     0.910708     2.696136   0.02965591     16221.12
      8376.8    0.9054151     2.702238   0.03064258     16222.01
        8377    0.9002703     2.708762   0.03117124     16223.03
      8377.2    0.8953553     2.714953   0.03107271     16224.17
      8377.4    0.8906247     2.721072   0.03051443     16225.28
      8377.6    0.8860083     2.727096   0.03043498     16226.17
      8377.8    0.8815659     2.733173   0.02972178     16227.09
        8378    0.8772804     2.739301   0.02910055     16227.81
      8378.2    0.8732083      2.74485    0.0288274     16228.33
      8378.4     0.869301     2.750376   0.02867148     16229.31
      8378.6    0.8654752     2.756235   0.02874419     16230.02
      8378.8    0.8617717     2.762238   0.02899968     16230.53
        8379    0.8581147     2.767845    0.0285577     16230.65
      8379.2    0.8546269     2.773576   0.02783143     16231.34
      8379.4     0.851326     2.779081   0.02680502     16232.37
      8379.6    0.8480393     2.784503   0.02531046     16232.81
      8379.8    0.8449549     2.789289   0.02455521     16233.62
        8380    0.8420554     2.793824    0.0229081     16234.75
      8380.2    0.8392607     2.798726   0.02186124     16235.91
      8380.4    0.8365917     2.802829   0.02094713     16236.68
      8380.6    0.8340502     2.806778   0.01930475     16237.48
      8380.8    0.8315656     2.810582    0.0176757     16238.32
        8381    0.8292426     2.814169   0.01560571     16239.55
      8381.2    0.8271099      2.81697   0.01336419     16240.41
      8381.4     0.825041     2.819263   0.01143006     16240.93
      8381.6    0.8231219     2.821273   0.01006631     16241.75
      8381.8    0.8211532     2.823313   0.00850621     16242.59
        8382    0.8192083     2.825023  0.006987096      16243.3
      8382.2    0.8174854     2.826068  0.004801003      16244.3
      8382.4    0.8159083     2.826863  0.002533404     16244.92
      8382.6    0.8144937     2.827154 0.0009996535     16245.67
      8382.8    0.8132294      2.82705 -0.001285205     16246.45
        8383    0.8120302     2.826868 -0.003491362     16247.63
      8383.2    0.8109461     2.825835 -0.005526788     16248.86
      8383.4    0.8099217     2.824361 -0.007571112     16249.53
      8383.6    0.8089842     2.822628 -0.009239431     16250.19
      8383.8    0.8082519     2.820811  -0.01142779        16251
        8384    0.8076151     2.818443  -0.01263167     16251.54
      8384.2    0.8070635     2.815219  -0.01390405      16252.2
      8384.4     0.806621     2.812523  -0.01487968      16252.9
      8384.6    0.8063258     2.809687  -0.01527743     16253.59
      8384.8    0.8061374      2.80654   -0.0168542     16253.97
        8385    0.8061885     2.802997  -0.01892706      16254.8
      8385.2    0.8064379      2.79904  -0.02055912     16255.72
      8385.4    0.8067821     2.794546  -0.02198042     16256.58
      8385.6    0.8071496     2.790092   -0.0230328     16256.93
      8385.8    0.8075391     2.785413  -0.02367435     16256.99
        8386    0.8080907     2.780613   -0.0251351     16257.53
      8386.2    0.8088277     2.775606  -0.02657988     16258.18
      8386.4    0.8097548     2.769984  -0.02803694     16258.97
      8386.6    0.8107289     2.764149   -0.0298218     16259.65
      8386.8    0.8117542     2.758184  -0.03077228     16259.94
        8387     0.812972     2.751749  -0.03087855     16261.11
      8387.2    0.8142827     2.745366  -0.03042333     16262.39
      8387.4    0.8156238     2.739446  -0.03004345     16263.05
      8387.6    0.8169757     2.733845  -0.02982376     16263.76
      8387.8     0.818393     2.727714  -0.03008552     16264.47
        8388    0.8199037     2.721507  -0.03122127      16265.2
      8388.2    0.8216192     2.715378  -0.03100271     16266.61
      8388.4      0.82343     2.708868  -0.03076748     16267.63
      8388.6    0.8251525     2.702912   -0.0306644      16268.1
      8388.8    0.8268819     2.696893  -0.02966031     16268.93
        8389    0.8287195     2.690846  -0.02944594     16269.86
      8389.2    0.8305602      2.68514  -0.02847746     16270.37
      8389.4    0.8323675     2.679355  -0.02714475     16270.53
      8389.6     0.834267     2.674111  -0.02616045     16271.13
      8389.8    0.8362538      2.66913  -0.02549864     16271.97
        8390    0.8382293     2.664212  -0.02495052     16272.63
      8390.2    0.8402306     2.658956  -0.02434365     16272.89
      8390.4    0.8422733     2.654151  -0.02380322     16273.08
      8390.6    0.8443246     2.649655  -0.02292445     16273.27
      8390.8    0.8463488     2.645169  -0.02236747      16273.2
        8391    0.8484519     2.640617  -0.02239628     16273.55
      8391.2    0.8506706     2.636257  -0.02237361     16274.45
      8391.4    0.8529042     2.631738  -0.02171312     16275.38
      8391.6    0.8551461      2.62727  -0.02132086     16276.05
      8391.8    0.8574437     2.623246  -0.02032522     16276.69
        8392     0.859786       2.6192  -0.01963478     16277.46
      8392.2    0.8621174     2.615478  -0.01938612     16277.93
      8392.4    0.8645563     2.611562  -0.01828348     16278.54
      8392.6    0.8670178     2.607737  -0.01751232     16279.12
      8392.8    0.8694155     2.604573  -0.01655401     16279.45
        8393    0.8719351     2.601468  -0.01598698     16280.39
      8393.2    0.8745562     2.598319  -0.01577782     16281.48
      8393.4      0.87721     2.594948  -0.01534089     16282.31
      8393.6    0.8799552     2.591951  -0.01457255     16283.02
      8393.8    0.8827756     2.589196  -0.01307661     16283.81
        8394    0.8856187     2.586661  -0.01171394     16284.46
      8394.2    0.8884307     2.584486  -0.01094036      16284.9
      8394.4    0.8913322      2.58258  -0.01003658     16285.87
      8394.6    0.8943211     2.580443 -0.009032521     16286.65
      8394.8    0.8973047     2.578632 -0.008405465     16287.14
        8395    0.9003278      2.57726 -0.007926864     16287.63
      8395.2    0.9033771     2.575856 -0.006712601     16288.25
      8395.4      0.90647     2.574102  -0.00563448     16288.89
      8395.6    0.9096222     2.573262 -0.004396929     16289.82
      8395.8     0.912743     2.572753 -0.002694282     16290.53
        8396    0.9159058     2.572338  -0.00245838     16291.49
      8396.2    0.9190908     2.571946 -0.002235554     16292.55
      8396.4     0.922312     2.571295 -0.001770152     16293.69
      8396.6    0.9255739     2.570964 -0.001555758     16294.74
      8396.8    0.9288725     2.570922 -0.0007679041     16295.23
        8397    0.9321905     2.570702 -0.0002504657     16295.86
      8397.2    0.9355171     2.570681 -0.000159255     16296.57
      8397.4    0.9389736     2.570764 -5.90846e-05     16297.37
      8397.6    0.9425346     2.570795 0.0001612017     16298.11
      8397.8    0.9460856     2.570654 0.0003355795     16298.66
        8398    0.9493887      2.57081  0.000153113     16298.89
      8398.2    0.9525696     2.571032 0.0003660972     16299.22
      8398.4    0.9558762     2.570917 -1.353176e-05     16299.65
      8398.6    0.9592235     2.570947 -0.0006426026     16299.93
      8398.8    0.9626366     2.570799 -0.0009354092     16300.48
        8399    0.9660274     2.570518 -0.001517259     16301.24
      8399.2    0.9692201     2.570169 -0.001834979     16302.02
      8399.4     0.972166     2.569734 -0.001987222     16302.07
      8399.6    0.9751028     2.569331 -0.002502106      16302.5
      8399.8    0.9779456     2.568927 -0.002799149     16303.35
        8400    0.9806874      2.56851 -0.002839695     16304.07
        8401    0.9940476     2.565888 -0.002923377     16307.62
        8402     1.006614     2.562276 -0.002651326      16310.9
        8403     1.019502     2.559364 -0.001743246     16314.13
        8404      1.03361     2.557904 0.0001523048     16317.99
        8405     1.048445     2.558915  0.002323221     16322.06
        8406       1.0633     2.562886  0.004549889     16326.42
        8407     1.076802     2.568657  0.006228257     16331.03
        8408     1.087664     2.576104  0.006834532     16335.62
        8409     1.095774     2.583828  0.006852471     16340.96
        8410     1.100673     2.590224  0.006361623     16345.19
        8411     1.102266     2.596067  0.006006831     16348.29
        8412     1.100964     2.601551  0.006572747     16351.45
        8413     1.097381     2.607856  0.007501454     16356.84
        8414     1.092084     2.616515   0.00881306        16362
        8415     1.085956     2.626073   0.01017673     16366.36
        8416     1.079332     2.636803   0.01088801     16370.56
        8417     1.072368     2.648562   0.01129316     16375.04
        8418     1.065248     2.660067   0.01121948     16380.34
        8419     1.058143     2.671245   0.01080191     16384.74
        8420     1.050743     2.681681   0.01063299     16388.15
        8421     1.042837      2.69177    0.0109129     16392.02
        8422     1.034919     2.702599   0.01157301     16395.37
        8423     1.027351     2.714897   0.01259976     16398.18
        8424     1.020389     2.727973   0.01347248     16400.62
        8425     1.014451     2.742169   0.01400722     16402.44
        8426     1.009349     2.756489   0.01405201     16404.69
        8427     1.004924     2.770926    0.0133944      16407.7
        8428     1.000863     2.784181    0.0120814     16411.35
        8429    0.9972261     2.795747  0.009892762     16414.86
        8430    0.9941896     2.804814  0.007135121     16418.71
        8431    0.9916903     2.810497  0.003913495      16423.2
        8432     0.989926     2.812721 0.0002077895     16427.73
        8433    0.9888933     2.811401 -0.003747209     16431.55
        8434    0.9883801     2.805645 -0.007518669     16435.67
        8435    0.9885797     2.795508  -0.01074963     16439.91
        8436    0.9890869     2.782647  -0.01313612     16443.12
        8437    0.9899418     2.768402  -0.01482776     16446.09
        8438    0.9905321     2.753101  -0.01599528     16449.11
        8439    0.9910459     2.736197  -0.01685493     16454.01
        8440     0.991463     2.718665   -0.0173589     16459.36
        8441    0.9916388     2.700982  -0.01732906     16463.42
        8442    0.9917039     2.683665  -0.01685887     16467.34
        8443    0.9915115     2.666881  -0.01598483     16471.99
        8444    0.9910578      2.65123    -0.014784     16475.69
        8445    0.9905253     2.637043   -0.0132277     16478.92
        8446    0.9899362     2.624529  -0.01188202     16481.75
        8447    0.9892006      2.61397  -0.01092964     16483.83
        8448    0.9887375     2.603702  -0.01091822     16487.85
        8449    0.9881771     2.593325  -0.01198534     16493.13
        8450    0.9876902     2.580856   -0.0132982     16498.32
        8451    0.9874628     2.566029  -0.01471911     16501.86
        8452    0.9876739     2.550509  -0.01562907     16506.42
        8453    0.9879155     2.534448  -0.01563536     16510.02
        8454    0.9882446      2.51834  -0.01500802     16513.03
        8455    0.9886446     2.503487  -0.01378806     16516.25
        8456    0.9890294     2.490477  -0.01174969     16520.69
        8457    0.9896147     2.479296 -0.009220248     16524.79
        8458    0.9903328     2.471341  -0.00650083     16528.99
        8459    0.9909456     2.466606  -0.00349325     16532.53
        8460    0.9916596     2.464474 -0.0006365534     16535.88
        8461    0.9921951     2.465323  0.001995321      16539.6
        8462    0.9924304     2.468795  0.004472957     16544.16
        8463    0.9919709     2.474587  0.006646897     16547.37
        8464    0.9910431     2.482366  0.008431765     16551.08
        8465    0.9897225     2.491911  0.009609209     16554.36
        8466     0.988076     2.502522   0.01061588     16558.37
        8467    0.9860165     2.513024   0.01120051     16562.05
        8468    0.9834015     2.524829   0.01135058     16565.24
        8469    0.9800212     2.536713   0.01129188     16568.28
        8470    0.9761473     2.547924   0.01058231      16571.3
        8471    0.9719667     2.558192  0.009324851     16574.51
        8472    0.9672595     2.567158  0.007909201     16577.25
        8473    0.9623023     2.574012  0.005938219     16581.28
        8474    0.9575122     2.579561  0.003854602     16585.65
        8475    0.9533271     2.581945  0.001865718     16589.05
        8476    0.9499625     2.582577 -0.0001787499     16591.72
        8477    0.9476424     2.581475 -0.001537583     16594.14
        8478    0.9461048     2.578846 -0.002323835     16597.14
        8479    0.9453968     2.575794 -0.002529091     16600.28
        8480    0.9457211     2.573281  -0.00181412     16605.52
        8481    0.9471334     2.571358 -0.0004955316     16611.83
        8482    0.9493197      2.57159  0.001677675     16617.28
        8483    0.9524542     2.573812  0.004656378     16622.11
        8484    0.9562237     2.579992  0.007993215     16625.77
        8485    0.9606525     2.589984   0.01169558     16627.74
        8486    0.9653617     2.603563   0.01508422     16629.37
        8487    0.9705011     2.620595   0.01762727     16633.03
        8488     0.975845     2.640329   0.01915159     16636.51
        8489    0.9812573     2.660493   0.01961286     16639.33
        8490    0.9864822     2.680169   0.01893496     16642.86
        8491    0.9914177     2.699046   0.01758799     16647.89
        8492     0.995952     2.716069   0.01560971     16654.11
        8493    0.9999429     2.730845   0.01306814     16657.95
        8494     1.003657     2.742608   0.01045171      16660.9
        8495     1.007207     2.751319  0.007841121     16663.99
        8496     1.010459     2.757876  0.005503841     16667.64
        8497     1.013122     2.762209  0.003748141     16670.87
        8498     1.015469     2.764623  0.002079136     16673.33
        8499     1.017637     2.766311 0.0005452986     16675.62
        8500     1.019483     2.766192 -0.0007890812     16678.93
        8501     1.021072     2.764391 -0.002476913     16684.41
        8502     1.022607     2.761467 -0.004295278     16688.86
        8503     1.024225     2.756403 -0.006374233     16693.32
        8504     1.025954     2.749011 -0.008635771     16697.63
        8505     1.028073     2.738894   -0.0108271      16701.7
        8506     1.029851     2.726924   -0.0129838     16704.19
        8507     1.031463     2.713095  -0.01500408     16707.43
        8508      1.03334     2.697076  -0.01684042     16711.03
        8509     1.035521     2.678877  -0.01857749     16713.84
        8510     1.037712     2.659562   -0.0201564     16718.11
        8511     1.039606     2.638785  -0.02126854     16722.83
        8512     1.041568      2.61645  -0.02230065     16727.48
        8513      1.04442     2.593803  -0.02318786     16732.31
        8514     1.048819      2.57036  -0.02377972     16732.72
        8515     1.053137     2.546034  -0.02431393     16719.37
        8516     1.055386     2.521331  -0.02420382     16698.13
        8517     1.057204     2.496548  -0.02342213     16690.78
        8518     1.058051     2.473544  -0.02191285     16690.45
        8519     1.057836     2.452345  -0.01985555     16689.76
        8520     1.057603      2.43368  -0.01739513     16689.76
        8521     1.056464     2.417125  -0.01451026     16693.15
        8522     1.054342     2.403964  -0.01127886     16697.65
        8523     1.052845     2.394304 -0.007737635     16702.46
        8524     1.052157     2.388565 -0.004044797     16708.51
        8525     1.051318     2.386175 -0.0005398018        16712
        8526     1.048454     2.387785  0.002498481     16714.35
        8527      1.04396     2.392145  0.005437019     16718.94
        8528     1.039958     2.398558  0.007875101      16726.7
        8529     1.035935     2.407923  0.009890306     16732.77
        8530      1.03159     2.419285   0.01150092      16734.7
        8531     1.027566     2.431706   0.01242668     16736.27
        8532     1.024295     2.444562   0.01289233     16739.94
        8533     1.020103      2.45763   0.01296056     16742.77
        8534      1.01426     2.470854   0.01259599     16745.53
        8535     1.008556     2.483548   0.01197547     16752.34
        8536     1.003546     2.494946   0.01098863     16756.25
        8537    0.9991506     2.505531  0.009954749     16759.11
        8538    0.9958995     2.514809  0.008921689     16758.35
        8539    0.9922271     2.523367  0.007812233     16759.96
        8540    0.9876633     2.530633  0.006555365      16768.3
        8541    0.9845928      2.53678  0.005140118     16773.23
        8542     0.982675      2.54103  0.003680807     16775.02
        8543    0.9803212     2.543928  0.002186399     16779.75
        8544    0.9790002     2.545356 0.0009014834     16786.15
        8545    0.9790883     2.545526 -0.0001080356     16789.78
        8546      0.97907     2.544636 -0.001049138     16791.94
        8547    0.9787964     2.543496 -0.001758426     16795.66
        8548    0.9783393      2.54116 -0.002212131     16800.54
        8549    0.9785317     2.538492 -0.002564125     16805.25
        8550    0.9792972     2.535788 -0.002724738     16810.12
        8551    0.9798233     2.533239 -0.002789284     16815.39
        8552    0.9801927     2.530261 -0.002912096     16816.78
        8553    0.9813225     2.527335 -0.003228873     16818.52
        8554    0.9828951     2.524139 -0.003428623     16822.79
        8555     0.984255     2.520324 -0.003730998     16827.24
        8556    0.9864652     2.516546 -0.004001829     16831.31
        8557    0.9888996     2.512411 -0.004130988     16835.86
        8558    0.9905295     2.508132 -0.004206208     16840.52
        8559    0.9914019       2.5038 -0.004084554     16843.15
        8560    0.9922454     2.499721 -0.003634781      16843.8
        8561    0.9937197     2.496073 -0.002860294      16846.4
        8562    0.9952854     2.493593 -0.001870322     16852.05
        8563    0.9967122     2.492359 -0.0004471819     16857.04
        8564    0.9972443      2.49224  0.001359131     16860.15
        8565    0.9977815     2.494284  0.003178266     16865.09
        8566    0.9979766     2.499029  0.004959095     16870.57
        8567    0.9977083     2.505072  0.006757946     16873.24
        8568    0.9981635     2.512076  0.007972171     16874.86
        8569    0.9983417     2.521316   0.00893127     16878.22
        8570    0.9980456     2.530918  0.009602828      16884.2
        8571    0.9988003     2.540797  0.009448261     16890.96
        8572     1.000326     2.550488  0.009040087      16898.5
        8573     1.001439     2.559109  0.008431396      16904.1
        8574     1.003056     2.567078  0.007605099     16906.59
        8575     1.004432     2.574522  0.006823699     16909.44
        8576     1.004491     2.580908  0.006041058     16913.88
        8577     1.004516     2.586404  0.005149401     16917.81
        8578     1.005333     2.591243  0.004284586     16923.21
        8579     1.006517      2.59512  0.003290927      16928.8
        8580     1.007827     2.598046  0.002416815     16933.21
        8581     1.009071     2.599568  0.001389759     16937.36
        8582     1.010362      2.60091 0.0001967883     16942.37
        8583     1.011015     2.600679 -0.0007472784     16946.27
        8584     1.012234     2.598834  -0.00193186     16948.22
        8585     1.013321     2.596578 -0.003001974     16949.49
        8586     1.013553     2.593182 -0.004083829     16950.85
        8587      1.01418     2.588671 -0.005477688     16952.51
        8588     1.015407     2.582498 -0.006842291     16954.73
        8589     1.016766     2.574668 -0.007996347     16958.65
        8590     1.017963     2.565813 -0.009120174     16965.29
        8591     1.018536     2.556686 -0.009913456     16970.26
        8592     1.018047     2.546018  -0.01049462     16971.39
        8593     1.018105     2.535014  -0.01114377     16971.97
        8594     1.018289     2.523835  -0.01138288     16974.86
        8595      1.01783     2.512111   -0.0114472     16979.09
        8596     1.017341     2.500486  -0.01148316     16981.99
        8597     1.017295     2.489225  -0.01125333     16983.73
        8598     1.017103     2.477902  -0.01091858     16986.44
        8599     1.015626     2.467097  -0.01054785     16990.58
        8600      1.01358     2.456812 -0.009839734     16996.55
        8601     1.011633     2.447034 -0.009083759     17000.14
        8602      1.00978     2.438543 -0.008271713     17000.66
        8603     1.008109     2.430762 -0.007365996     17005.26
        8604     1.006059     2.423725 -0.006417546     17012.55
        8605     1.004337      2.41757 -0.005399316     17019.23
        8606      1.00259     2.412873 -0.004426784     17023.01
        8607     1.000653     2.409165 -0.003436788     17026.42
        8608     0.998662     2.406018 -0.002574416     17030.76
        8609    0.9965176     2.403823  -0.00182255     17033.49
        8610    0.9946344     2.402575 -0.001158932     17037.06
        8611    0.9938323     2.401875 -0.0006583544     17041.53
        8612    0.9938585     2.401382 -0.0003811831     17046.65
        8613       0.9941     2.401189 -0.0001690495      17049.2
        8614    0.9940573     2.401051 -2.564759e-05     17051.08
        8615     0.993985     2.401199 -7.818417e-06     17054.77
        8616    0.9940019     2.401279 -3.719732e-05     17056.56
        8617    0.9942209     2.401158 -0.0002072586     17057.92
        8618    0.9946002     2.400902 -0.0002453047     17060.35
        8619    0.9946521      2.40037 -0.0002435408     17061.88
        8620    0.9951288     2.400298 -0.0001987929     17060.37
        8621    0.9962702     2.400184 -0.000205317     17055.93
        8622    0.9971338     2.400107 -0.0002415549     17034.41
        8623    0.9980632     2.399548 -0.0003133916     16944.73
        8624    0.9977916     2.399332 -0.0002591715     16830.75
        8625     0.996125      2.39893 -0.0003409412     16843.27
        8626    0.9953595      2.39907 -0.000322043     16911.26
        8627    0.9962497     2.398185 -0.0001553053     17053.32
        8628    0.9971335     2.398044 -9.077405e-05      17094.8
        8629    0.9976443     2.398309 0.0002718458     17104.99
        8630    0.9981536     2.398707 0.0005108741     17110.21
        8631    0.9989737     2.399272  0.000790084      17116.6
        8632    0.9996991     2.400087  0.001201236     17122.71
        8633     1.000208     2.401469  0.001526785     17125.23
        8634     1.000149     2.403512  0.001808979     17126.89
        8635    0.9996088     2.405379  0.001950209        17131
        8636    0.9992983     2.407323  0.002104147     17136.87
        8637    0.9989769      2.40927  0.002133398     17142.05
        8638    0.9985828     2.411928  0.002224517     17144.36
        8639    0.9983235     2.413913  0.002243587     17146.14
        8640    0.9985743     2.416221  0.002047447     17148.89
        8641    0.9991983     2.418244  0.001968502     17151.15
        8642    0.9999534     2.420118  0.001856571      17152.9
        8643     1.000598     2.421787  0.001717366      17155.6
        8644     1.001231     2.423648  0.001513038     17158.86
        8645     1.001582     2.425114  0.001380122     17161.62
        8646     1.001553      2.42617  0.001119552     17166.87
        8647     1.001649     2.427307  0.000961523     17171.86
        8648     1.001791     2.428126  0.000976691     17175.56
        8649     1.002076      2.42896 0.0009060195     17180.31
        8650     1.002326     2.430077 0.0008504501     17185.96
        8651     1.002832     2.430931 0.0007352748     17191.28
        8652     1.003636     2.431528 0.0006621942     17195.68
        8653     1.004523     2.431901 0.0006635492     17199.24
        8654     1.005597     2.432726 0.0007881165     17202.08
        8655     1.006805     2.433585 0.0009464698     17206.19
        8656     1.007418      2.43468 0.0009884478     17211.13
        8657     1.007582     2.435687  0.001127506     17214.91
        8658     1.007731      2.43668  0.001112187     17217.74
        8659     1.008301     2.438095  0.001258579     17221.02
        8660     1.009189     2.439129  0.001383587     17223.65
        8661     1.009903     2.440721  0.001463418     17226.29
        8662     1.010555     2.442214  0.001641509     17229.75
        8663     1.011533     2.443949   0.00163889     17233.43
        8664     1.012706     2.445695   0.00164668      17236.4
        8665     1.013303     2.447277  0.001533551     17237.84
        8666     1.013447     2.448801  0.001184162      17239.1
        8667     1.013839     2.450083 0.0009231711     17243.24
        8668     1.014387     2.450431 0.0005463885     17247.59
        8669      1.01521     2.450969 7.288535e-05     17251.59
        8670     1.015858     2.450986 -0.0002614626     17256.07
        8671     1.015086     2.450375 -0.0008295698     17260.07
        8672     1.014272     2.449386 -0.001425479     17262.04
        8673     1.013854     2.447651 -0.001899812     17264.87
        8674     1.013553     2.445284 -0.002291267     17268.97
        8675     1.013493     2.442776 -0.002762701     17271.66
        8676      1.01308      2.44022 -0.003143336     17274.14
        8677     1.012152       2.4366 -0.003487768     17278.21
        8678      1.01109     2.432711 -0.003763495     17282.33
        8679     1.009914     2.428825 -0.004036768      17287.8
        8680     1.008277     2.425167 -0.004188873     17290.45
        8681     1.006497     2.420453 -0.004274391     17294.53
        8682     1.004681     2.415956 -0.004554408     17299.15
        8683     1.003066     2.411727 -0.004546026     17302.02
        8684     1.001502     2.406949  -0.00457161     17304.37
        8685    0.9995929     2.402269 -0.004614648      17305.2
        8686    0.9975258     2.397669 -0.004479946     17307.02
        8687    0.9952811     2.393268 -0.004353044     17309.22
        8688    0.9936435     2.389029 -0.004042177     17312.07
        8689    0.9923285     2.384857 -0.003696152     17315.22
        8690    0.9911806       2.3815 -0.003259463     17319.15
        8691    0.9904866     2.378484 -0.002769855     17323.24
        8692    0.9897959     2.375991 -0.002364701     17325.88
        8693    0.9892071     2.373778 -0.001881029      17329.5
        8694    0.9885246     2.372042 -0.001460653        17334
        8695    0.9877092      2.37096 -0.001158554     17338.43
        8696    0.9870126     2.370149 -0.0008801322     17342.63
        8697    0.9870445     2.369143 -0.0007321181     17340.88
        8698    0.9872429     2.368521 -0.000595173     17328.76
        8699     0.986959     2.368031 -0.0004138403      17317.9
        8700    0.9866733     2.367768 -0.0004349831     17322.94
        8701    0.9866245     2.367488 -0.000574106     17334.84
        8702    0.9870248     2.366781 -0.0008432282     17348.01
        8703    0.9874877     2.365735 -0.001178245     17356.92
        8704    0.9875979     2.364395 -0.001513994     17361.87
        8705    0.9877353     2.362775 -0.001853874      17361.6
        8706    0.9880053     2.360725 -0.002230551     17353.31
        8707    0.9884523     2.358319 -0.002583778      17345.3
        8708    0.9890297     2.355473 -0.002925925     17349.66
        8709    0.9891605      2.35244  -0.00327967     17359.98
        8710    0.9887395     2.349021 -0.003615777     17371.67
        8711    0.9882117     2.345201 -0.003785915     17380.36
        8712    0.9875719      2.34101 -0.003835603     17385.78
        8713    0.9871562     2.337296 -0.003756471     17390.74
        8714    0.9869473     2.333679 -0.003530463     17394.78
        8715     0.986882     2.330175 -0.003152642     17399.51
        8716    0.9867034     2.326888 -0.002721246     17403.98
        8717    0.9866595     2.324686 -0.002266885     17407.32
        8718    0.9869762     2.322794 -0.001723729     17411.06
        8719     0.987405     2.321107 -0.001423978     17416.44
        8720    0.9878201     2.319993 -0.001063875     17421.37
        8721    0.9880561      2.31899 -0.0008253618      17424.4
        8722    0.9878134     2.318539 -0.0006721342     17425.56
        8723    0.9875105     2.317806 -0.0005604259     17427.78
        8724    0.9877688     2.317304 -0.0005908519     17431.25
        8725    0.9881802     2.316748 -0.0004976766     17435.25
        8726    0.9884433     2.316175 -0.0004738992     17438.67
        8727    0.9885839     2.315815 -0.0004631852     17442.58
        8728    0.9885872     2.315409 -0.0003895086     17446.24
        8729    0.9888324     2.314895 -0.0003579434     17449.78
        8730     0.989208     2.314617 -0.0003015965     17452.05
        8731     0.989811     2.314383 -0.0002396527     17454.42
        8732    0.9906992     2.314202 -7.946692e-05     17458.57
        8733     0.991686     2.313937 4.409946e-05     17463.74
        8734     0.992717     2.314299 4.896489e-05     17469.55
        8735    0.9933643      2.31456 4.634422e-05     17473.14
        8736    0.9938928     2.314398 -3.576956e-05     17474.78
        8737     0.994506     2.314122 6.511127e-06     17477.41
        8738    0.9950182     2.314156 0.0001502955     17482.09
        8739    0.9955006     2.314586 0.0002916988     17487.38
        8740      0.99588     2.314999 0.0003513145     17490.41
        8741    0.9965517     2.315289  0.000411636      17491.1
        8742    0.9975236     2.315561 0.0003566861     17493.01
        8743    0.9987871     2.316232 0.0003408426     17496.13
        8744    0.9997227     2.316426 0.0004108844     17498.31
        8745     1.000313     2.316652 0.0003739834     17502.41
        8746     1.000535     2.317205 0.0003905492     17505.69
        8747     1.000663     2.317728 0.0004820618     17506.86
        8748      1.00116     2.317988 0.0004682509     17507.64
        8749     1.002154     2.318581  0.000482087     17510.01
        8750     1.003394     2.319078 0.0005151736     17513.92
        8751     1.004683     2.319656 0.0004337865     17517.12
        8752     1.005524     2.320049 0.0004788617     17519.63
        8753     1.005678     2.320316 0.0004188018     17523.33
        8754     1.005979     2.320993 0.0004269332     17528.19
        8755     1.006467     2.321332 0.0004449516     17531.73
        8756     1.006826     2.321757 0.0003427361     17534.11
        8757     1.007657     2.322096 0.0004526633     17536.79
        8758     1.008581     2.322364 0.0003932888     17538.84
        8759     1.008722     2.323142 0.0003540514     17541.27
        8760     1.008592      2.32333 0.0002938331     17545.96
        8761     1.008182     2.323512 0.0001074836     17551.08
        8762     1.007704      2.32354 9.126373e-05     17556.04
        8763     1.007359     2.323572 6.460613e-05     17560.13
        8764     1.007281     2.323695 0.0001077229     17563.35
        8765     1.007407      2.32377 0.0001474208     17566.64
        8766     1.007317     2.323971 0.0001501248     17569.25
        8767     1.007376     2.324162 0.0002191396     17571.53
        8768     1.007341     2.324296 0.0001140328     17573.99
        8769     1.007002     2.324647 2.891753e-05     17577.76
        8770     1.006079     2.324427 -3.400226e-05     17580.56
        8771     1.005089     2.324278 -0.000153643     17583.75
        8772     1.004307      2.32416 -0.0002033587      17587.2
        8773     1.003696     2.324032 -0.000251406     17590.27
        8774     1.003098     2.323613 -0.000400797      17594.3
        8775     1.002421     2.323272 -0.0005582266     17597.73
        8776       1.0018     2.322556 -0.0006984095     17599.63
        8777     1.001338     2.321799 -0.0008993542     17601.24
        8778     1.001105      2.32082 -0.001108676     17601.82
        8779     1.001076     2.319675 -0.001219752     17603.76
        8780     1.000852     2.318122  -0.00137172     17606.06
        8781     1.000688      2.31692 -0.001535101     17610.11
        8782     1.000275     2.315333 -0.001584751     17614.21
        8783    0.9991919     2.313534 -0.001824314     17617.49
        8784    0.9979718     2.311783 -0.001998173     17619.08
        8785     0.996803     2.309623 -0.002126511     17621.13
        8786    0.9959871      2.30734 -0.002351011     17623.87
        8787    0.9955572     2.305028 -0.002523062      17625.7
        8788    0.9956314     2.302379 -0.002617604     17626.67
        8789    0.9961284     2.299531 -0.002657692     17628.43
        8790    0.9965562      2.29687 -0.002627481     17632.48
        8791    0.9964015     2.294397 -0.002555428     17636.57
        8792    0.9957431     2.291869 -0.002515416     17640.34
        8793    0.9954707     2.289309 -0.002436426     17643.62
        8794    0.9957308     2.286808 -0.002321705     17646.62
        8795    0.9961349     2.284652 -0.002155348     17649.61
        8796    0.9965811     2.282582  -0.00198025     17651.64
        8797    0.9969625     2.280688  -0.00187612     17653.58
        8798    0.9971724     2.278887 -0.001859407     17655.74
        8799    0.9968476     2.277147 -0.001690629     17656.94
        8800    0.9965146     2.275144 -0.001515698     17659.41
        8801    0.9960211     2.273925 -0.001369985     17662.12
        8802    0.9955555     2.272824 -0.001094132     17664.88
        8803    0.9953031     2.271667 -0.001020333      17667.6
        8804    0.9952502     2.270768 -0.001016005     17671.55
        8805    0.9951866     2.269844 -0.0008955053     17675.38
        8806    0.9950553      2.26876 -0.000820671     17678.53
        8807    0.9946921     2.268085 -0.0006724339     17681.82
        8808    0.9945683     2.267485 -0.0004749937     17684.71
        8809    0.9947533     2.267154 -0.0004568012     17687.55
        8810    0.9946664      2.26686 -0.0004831854     17690.49
        8811    0.9944998     2.266258 -0.0005511272     17693.79
        8812    0.9945558     2.265552 -0.0006871324     17695.84
        8813    0.9945773      2.26495 -0.0006874065     17696.64
        8814    0.9946098     2.264112 -0.0006090011     17699.46
        8815    0.9944585     2.263508 -0.0006305596     17703.58
        8816    0.9944788     2.263116 -0.000652982     17707.57
        8817    0.9946523     2.262427 -0.0006959558     17710.95
        8818    0.9949931       2.2615 -0.0008120112     17713.13
        8819    0.9952906     2.260725 -0.0009218397     17715.66
        8820    0.9952462     2.259868 -0.001015209     17717.19
        8821    0.9949881      2.25874 -0.001153707     17717.61
        8822    0.9948678     2.257439  -0.00126378     17719.34
        8823    0.9946215      2.25611 -0.001326973     17718.68
        8824    0.9948153     2.254813 -0.001403863     17717.59
        8825    0.9950698     2.253432 -0.001524296     17717.08
        8826    0.9945825     2.251823 -0.001661853     17714.43
        8827    0.9939422     2.250013 -0.001692646     17709.58
        8828    0.9936189     2.248166 -0.001826764     17700.85
        8829    0.9937996     2.246661 -0.001963351     17682.28
        8830    0.9945009     2.244516 -0.001861435     17634.53
        8831    0.9963854     2.242159 -0.001626303     17485.47
        8832    0.9963403      2.24072 -0.001670962     17248.88
        8833    0.9928704     2.240156 -0.001289402     17227.17
        8834    0.9945535     2.237833 -0.001134456     17330.83
        8835    0.9946483     2.237002  -0.00146594      17276.3
        8836    0.9922114     2.236182 -0.001267655     17476.57
        8837    0.9938177     2.234292  -0.00136409     17709.45
        8838    0.9943885     2.232762 -0.001453542     17768.68
        8839     0.994331     2.231545 -0.001281767     17782.73
        8840    0.9942921     2.230368 -0.001187714     17788.91
        8841    0.9944061     2.229165 -0.001150318     17792.95
        8842     0.994534     2.228011 -0.001137644     17795.38
        8843     0.994601     2.226944 -0.001154635     17798.38
        8844    0.9948465     2.225817 -0.001098435     17802.37
        8845    0.9950778     2.224547 -0.001135032     17804.12
        8846    0.9955068     2.223617 -0.001068276     17805.53
        8847    0.9961995     2.222404 -0.001044817     17808.19
        8848    0.9971064     2.221544 -0.001095096      17812.2
        8849    0.9980282     2.220368 -0.001086464     17816.75
        8850    0.9985188     2.219237 -0.001073445     17820.72
        8851    0.9988416     2.218058 -0.0009947707     17822.61
        8852     0.999382     2.217251 -0.0009605786     17823.98
        8853     1.000003     2.216389 -0.0009174315     17826.08
        8854     1.000079     2.215395 -0.0009300135     17828.41
        8855     1.000046     2.214388 -0.0008022806     17831.06
        8856     1.000296      2.21353 -0.0006248751     17833.45
        8857     1.000362     2.213179 -0.0005320694      17835.5
        8858      1.00044     2.212895 -0.000465183     17838.08
        8859     1.000461      2.21226 -0.0005205527     17841.34
        8860     1.000713      2.21167 -0.0006050122     17845.63
        8861     1.001099     2.211097 -0.0005199769     17851.23
        8862     1.001432     2.210475 -0.0003949482     17856.66
        8863     1.001645      2.21018 -0.0003185231      17860.5
        8864     1.001714      2.21009 -0.000225827     17861.93
        8865     1.001497     2.209823 -0.0002307307     17863.59
        8866     1.000813     2.209572 -0.0001804778     17865.18
        8867     1.000513     2.209257 -9.029155e-05      17867.3
        8868     1.000232     2.209368 -2.755429e-05     17869.49
        8869     0.999736     2.209462 0.0001147947      17871.9
        8870    0.9994816     2.209462 3.202929e-05     17875.03
        8871    0.9995357     2.209716 -4.854639e-06     17878.92
        8872    0.9997697     2.209496 5.743384e-05     17882.08
        8873    0.9998154     2.209443 1.938616e-06     17886.03
        8874    0.9999917     2.209691 6.230747e-05     17889.47
        8875    0.9999901     2.209724 0.0001944304     17892.36
        8876    0.9998459     2.209745 0.0001712603     17895.19
        8877    0.9994282      2.21022 0.0001845721     17896.79
        8878    0.9991531     2.210376 0.0002416623     17897.96
        8879    0.9992041     2.210462 0.0002214871     17900.79
        8880    0.9990633     2.210712 0.0002509792     17904.56
        8881    0.9987152     2.211106  0.000314345     17907.54
        8882     0.998554      2.21138 0.0003335502     17910.27
        8883    0.9983398      2.21172 0.0002704207     17911.81
        8884    0.9980529     2.212046 0.0002620476     17913.77
        8885    0.9978899     2.212188 0.0002307273     17916.88
        8886    0.9977667     2.212428 0.0002083227     17920.35
        8887    0.9977379     2.212643  0.000236137     17924.22
        8888    0.9976233      2.21288 0.0001351739     17926.99
        8889    0.9974022     2.213132 2.443614e-05     17930.61
        8890    0.9972355     2.212969 6.509893e-06     17934.25
        8891    0.9973063      2.21274 -0.0001079527     17937.46
        8892    0.9974401     2.212906 -0.0001618465     17939.77
        8893    0.9972499     2.212701 -0.000187351      17940.8
        8894    0.9970317     2.212322 -0.0003950339     17943.23
        8895    0.9967676     2.211991 -0.0005536376     17946.32
        8896    0.9962724     2.211325 -0.0006770137     17949.53
        8897    0.9956359     2.210486 -0.0008286134     17952.13
        8898    0.9951635     2.209614 -0.000965642     17955.43
        8899    0.9950249     2.208676 -0.001052068     17958.54
        8900    0.9950309     2.207463 -0.001169707     17960.73
        8901    0.9951141     2.206278 -0.001331065     17963.54
        8902    0.9950847     2.204935 -0.001425512     17966.73
        8903    0.9952891     2.203352 -0.001556952     17969.51
        8904    0.9952774     2.201761 -0.001671528     17972.23
        8905    0.9951416      2.20005  -0.00167844     17974.19
        8906    0.9947959     2.198249 -0.001733602     17975.91
        8907    0.9945941     2.196638 -0.001749498     17978.85
        8908    0.9948497     2.194826 -0.001721005     17981.68
        8909    0.9952269     2.193052  -0.00177238     17984.07
        8910    0.9954961     2.191365 -0.001748971     17987.79
        8911     0.995296     2.189549 -0.001697284     17992.08
        8912     0.995142      2.18783 -0.001681786     17995.81
        8913    0.9951747     2.186263 -0.001593286      17998.5
        8914    0.9951917     2.184638 -0.001560162     17999.39
        8915    0.9951354     2.183176 -0.001571751     18001.37
        8916    0.9951349      2.18159 -0.001502327     18003.62
        8917    0.9951884     2.179976 -0.001504993      18005.8
        8918    0.9952571     2.178628 -0.001381944     18008.24
        8919    0.9954155     2.177156 -0.001306405     18011.25
        8920    0.9954741     2.176062 -0.001256274     18014.77
        8921    0.9955459      2.17475  -0.00115616     18018.19
        8922    0.9953478     2.173603 -0.001121949     18020.21
        8923    0.9953232     2.172531 -0.001018766     18022.86
        8924    0.9954318     2.171574 -0.0009884774     18025.52
        8925      0.99571     2.170675 -0.0009868989     18029.04
        8926    0.9959595     2.169649 -0.001035893     18032.77
        8927     0.996362     2.168584 -0.001076211     18035.15
        8928    0.9966769     2.167431 -0.001027522     18035.91
        8929    0.9967959      2.16637 -0.0009367547     18037.52
        8930    0.9969087     2.165539 -0.0008451445     18041.27
        8931    0.9969929     2.164837 -0.0007871295     18044.26
        8932     0.996977      2.16405 -0.0007761863     18047.59
        8933    0.9968591     2.163222 -0.0008346305     18050.39
        8934    0.9966754     2.162434 -0.0008312474     18052.67
        8935    0.9968668     2.161498 -0.0008743816      18054.1
        8936    0.9973152     2.160725 -0.0008747108     18050.68
        8937     0.998067     2.159724 -0.0007861699     18024.59
        8938    0.9985227     2.158936 -0.0007281597     17976.74
        8939    0.9981013     2.158353 -0.0007115897     17957.02
        8940    0.9975645     2.157812 -0.0007368316     17982.61
        8941     0.997328     2.156878 -0.0007751687     18030.37
        8942    0.9974479     2.155988 -0.0008211973     18056.37
        8943     0.997475     2.155253 -0.0007838059     18064.15
        8944    0.9975707     2.154528 -0.0007667029     18070.13
        8945     0.997795     2.153743 -0.0008338256     18076.07
        8946    0.9981206     2.152922 -0.0008031329     18081.04
        8947    0.9985431     2.151917 -0.0007698424     18084.52
        8948    0.9987874     2.151315 -0.0008294789     18087.28
        8949    0.9992084     2.150663 -0.0008553384     18089.63
        8950    0.9996509     2.149604 -0.0009327921     18090.86
        8951    0.9998708     2.148496 -0.0009981618      18093.3
        8952    0.9997113     2.147584 -0.0009280705      18095.3
        8953    0.9996402     2.146671 -0.0008457383     18097.82
        8954    0.9998222     2.145891 -0.000828996     18101.87
        8955    0.9999742     2.145113  -0.00078898     18105.53
        8956     1.000477     2.144268 -0.0008226108        18107
        8957     1.000818     2.143515 -0.0008886188      18107.7
        8958      1.00123     2.142601 -0.000901293     18110.09
        8959     1.001661     2.141559 -0.0009490113     18112.02
        8960     1.002167     2.140663 -0.0009751612     18113.89
        8961      1.00268     2.139719 -0.0009235586     18116.82
        8962     1.002984       2.1387 -0.0009278535     18119.39
        8963     1.003047     2.137864 -0.0008799536     18122.17
        8964     1.002927     2.136951 -0.0009164057     18125.82
        8965     1.002976     2.136199 -0.000983904     18130.19
        8966     1.003143     2.135035 -0.001057178     18133.56
        8967     1.003125     2.133929 -0.001094893     18135.28
        8968     1.002975     2.132723 -0.001014491     18136.14
        8969     1.002845     2.131819 -0.0009115219     18137.79
        8970     1.002821     2.130977 -0.0008897296     18140.01
        8971     1.002787     2.130283  -0.00098087     18143.25
        8972     1.002915     2.129164 -0.0009529952     18148.68
        8973     1.003069     2.127896 -0.0009724638     18152.49
        8974     1.003222     2.127165 -0.0008597022      18154.3
        8975     1.003411     2.126393 -0.0008446044     18155.77
        8976     1.003423     2.125725 -0.0008366008     18157.46
        8977     1.003303     2.124517 -0.0008065056     18159.14
        8978      1.00332     2.123818 -0.0008862768     18160.67
        8979     1.003355     2.123167 -0.0007631155     18162.51
        8980     1.003311      2.12218 -0.000707947     18164.09
        8981     1.003143     2.121465 -0.0007521498     18165.92
        8982     1.003036     2.120986 -0.0006552822     18166.51
        8983      1.00313     2.120158 -0.0007359877      18167.8
        8984     1.003234     2.119559 -0.0007605819     18170.27
        8985     1.003172     2.118521 -0.0006581877     18172.53
        8986     1.003037     2.117944 -0.0007138007     18174.56
        8987     1.002796     2.117525 -0.0006085624     18176.59
        8988      1.00266     2.116704 -0.0005525379     18178.98
        8989     1.002675     2.116087 -0.0005850976     18181.43
        8990     1.002606     2.115734 -0.0005275809     18182.55
        8991      1.00253     2.115185 -0.0005094879      18183.4
        8992     1.002498     2.114593 -0.0005726128     18184.82
        8993     1.002402     2.114049 -0.0005696694     18186.94
        8994     1.002252     2.113444 -0.0005386413     18188.84
        8995      1.00203     2.112906 -0.0005574011     18191.51
        8996      1.00198     2.112439 -0.0005701761      18194.8
        8997     1.001928     2.111819 -0.0005649129     18197.06
        8998     1.001884     2.111163 -0.000523958     18198.96
        8999     1.001764     2.110647 -0.0005626165     18200.63
        9000     1.001609     2.110343 -0.0005090704     18202.65
        9001     1.001483     2.109569 -0.0004844733     18205.35
        9002     1.001375     2.109127 -0.0005639277     18208.14
        9003     1.001188     2.108709 -0.0005204066     18211.42
        9004     1.001107     2.108087 -0.0004925108     18214.95
        9005     1.000965     2.107487 -0.0005015195     18218.04
        9006     1.000787     2.107157 -0.0004798375     18220.13
        9007     1.000895     2.106703 -0.0004037531     18222.29
        9008     1.001065     2.106168 -0.0004626637     18225.02
        9009     1.001106     2.105872 -0.0004756203     18226.77
        9010     1.001123     2.105306 -0.0004279905     18228.51
        9011     1.001002       2.1048 -0.0004275041     18229.79
        9012     1.000714     2.104456 -0.000452416     18231.68
        9013     1.000309     2.104162 -0.0003784478     18233.94
        9014    0.9997697     2.103496 -0.0003964752     18236.11
        9015    0.9994765     2.103286 -0.000482483     18238.46
        9016     0.999223      2.10287 -0.0004022752     18241.37
        9017    0.9989881     2.102232 -0.0005086077     18243.49
        9018    0.9986692     2.101887 -0.0005407417     18245.55
        9019    0.9982657     2.101252 -0.0004860794     18248.54
        9020    0.9979833     2.100707 -0.0005252956     18252.89
        9021    0.9976486     2.100288 -0.000485492     18255.12
        9022    0.9975439     2.099786 -0.0005296564     18257.53
        9023    0.9975372      2.09931 -0.0005581922     18260.95
        9024    0.9976969     2.098588 -0.0006255805     18263.83
        9025    0.9979534     2.098055 -0.000668258     18265.12
        9026    0.9981334     2.097284 -0.0006140261     18266.39
        9027    0.9982065     2.096637 -0.0006446581     18269.44
        9028    0.9984003     2.096132 -0.0006167832     18273.09
        9029    0.9986834     2.095476 -0.0006564602      18276.2
        9030    0.9990592     2.094816 -0.0006869682        18279
        9031     0.999162     2.094011 -0.0007128896     18281.13
        9032    0.9989517     2.093384 -0.0007336465     18282.14
        9033    0.9987964     2.092625 -0.000743096     18282.85
        9034    0.9986633     2.091882 -0.0007817435     18284.96
        9035    0.9984721     2.091039 -0.0008056019     18287.54
        9036    0.9984327     2.090257 -0.0008220703     18290.69
        9037    0.9984267     2.089402 -0.0007866979        18294
        9038    0.9981448     2.088594 -0.0007747119     18295.47
        9039    0.9976458     2.087892 -0.0007824145     18295.67
        9040    0.9974804     2.087159 -0.0007836097     18296.33
        9041    0.9976274     2.086273 -0.0008058132     18298.55
        9042    0.9975846     2.085459 -0.0007626587     18300.96
        9043    0.9973709     2.084669 -0.0007096534     18302.59
        9044    0.9975069     2.084108 -0.0007538453     18305.52
        9045    0.9976421     2.083434 -0.0007589748     18309.14
        9046    0.9977768     2.082444 -0.0008469643     18311.67
        9047      0.99795     2.081633 -0.0008992314     18313.92
        9048    0.9981134      2.08072 -0.0008620392     18317.05
        9049    0.9980842     2.079837 -0.0009110272     18318.33
        9050    0.9979994     2.078996 -0.000881078      18317.7
        9051    0.9983027     2.077989 -0.0008884057     18319.89
        9052    0.9987578     2.077196 -0.0009201697     18323.08
        9053    0.9992772     2.076284 -0.0009167761      18326.1
        9054    0.9996617     2.075315 -0.0009500846      18329.5
        9055    0.9999036     2.074322 -0.0009240544     18331.21
        9056     1.000216     2.073395 -0.0009112669     18332.69
        9057     1.000314     2.072587 -0.0008510039     18333.78
        9058     1.000196      2.07167 -0.0008245537     18334.79
        9059    0.9997532     2.070918 -0.0008097843     18335.36
        9060    0.9993201     2.070097 -0.0008121683      18336.8
        9061    0.9994235     2.069348 -0.0008980227     18338.44
        9062    0.9997022     2.068421 -0.0008960277     18340.18
        9063    0.9998005     2.067326 -0.0009101789     18341.56
        9064    0.9998577     2.066513 -0.0008469561     18343.06
        9065    0.9996214     2.065708 -0.0007398352     18344.49
        9066    0.9993046     2.065033 -0.0007927814     18346.96
        9067    0.9990828     2.064366 -0.0008242266     18348.96
        9068    0.9990064     2.063342 -0.000842134     18351.45
        9069    0.9989433     2.062411 -0.0008620539     18354.52
        9070    0.9989566     2.061665 -0.0007911305     18357.68
        9071    0.9990812     2.060918 -0.000752987     18360.27
        9072    0.9991855     2.060177 -0.0007736352     18361.75
        9073    0.9994153     2.059399 -0.0007962207     18364.58
        9074    0.9995167      2.05857 -0.0007683535     18366.88
        9075    0.9993345     2.057733 -0.0007364211     18369.21
        9076    0.9992108     2.057104 -0.000723601     18370.73
        9077    0.9994091     2.056453 -0.0007703111     18372.69
        9078    0.9997247     2.055676 -0.0008528051     18374.68
        9079     1.000023     2.054652 -0.000900984     18375.85
        9080     1.000188     2.053693 -0.0009263508     18377.23
        9081     1.000299     2.052849 -0.0008605471     18378.09
        9082     1.000616      2.05197 -0.0008501481     18378.18
        9083     1.000885      2.05121 -0.0008236399     18376.93
        9084     1.001205     2.050292 -0.0008082253     18372.43
        9085     1.001814     2.049555 -0.0008489511      18358.8
        9086     1.002292     2.048738 -0.0007354227      18335.5
        9087     1.002389     2.047814 -0.0007715096      18317.2
        9088     1.002361      2.04735 -0.0008111241      18308.6
        9089     1.002502     2.046468 -0.0007100068     18300.29
        9090     1.002847     2.045493 -0.0008856496     18274.12
        9091     1.003059     2.044974 -0.0008709036     18228.17
        9092       1.0033     2.043808 -0.0006259531     18176.22
        9093     1.003419     2.042985 -0.0007081507     18092.38
        9094     1.001697     2.042989 -0.0007211763     18082.66
        9095     1.001642     2.042141 -0.0006836289     18223.24
        9096     1.003574     2.040923 -0.000799712     18246.37
        9097     1.004037      2.04025 -0.0008357248     18139.84
        9098     1.002634      2.03979 -0.0007703145     18121.32
        9099     1.002322     2.038798 -0.0007645257     18223.43
        9100     1.002611     2.037842 -0.0008517494     18301.07
        9101     1.002446     2.037192 -0.0007856659      18324.4
        9102     1.002151     2.036383 -0.0007607897     18345.48
        9103     1.002081     2.035656 -0.0007997603     18364.71
        9104     1.002029     2.034799 -0.0007718005     18375.46
        9105     1.001754     2.033993 -0.0008029975     18384.14
        9106     1.001141     2.033296 -0.0008218959     18394.48
        9107      1.00076     2.032444 -0.0007758957     18411.94
        9108     1.000619     2.031511 -0.0008205217     18429.23
        9109     1.000419      2.03089 -0.0007846369     18438.63
        9110      1.00034     2.030014 -0.0007303375     18444.33
        9111     1.000294     2.029305 -0.0008064918     18448.92
        9112     1.000345      2.02859 -0.0007365931     18451.86
        9113     1.000315     2.027664 -0.0007900033     18454.49
        9114     1.000208     2.027068 -0.0008261524     18457.93
        9115     1.000373     2.026145 -0.0007971069      18461.7
        9116     1.000699     2.025285 -0.0008635215     18465.82
        9117     1.000854     2.024475 -0.0007779679     18469.48
        9118     1.001111     2.023614 -0.0007477168     18472.57
        9119     1.001304     2.023033 -0.0007372488     18473.97
        9120     1.001334     2.022294 -0.0007026534     18474.97
        9121     1.001309     2.021526 -0.0007309524     18475.94
        9122      1.00133     2.020803 -0.000752751     18476.92
        9123     1.001322     2.020109 -0.0007331593     18477.75
        9124     1.001282     2.019283 -0.0007184921     18479.44
        9125     1.001156     2.018594 -0.0007235968     18482.91
        9126     1.001113     2.017929 -0.0006908087      18486.1
        9127      1.00101     2.017215 -0.0006707993     18488.66
        9128     1.000944      2.01652 -0.0006569431     18491.18
        9129     1.000981      2.01591 -0.0006834857     18493.66
        9130     1.001264     2.015301 -0.0006217464     18495.21
        9131     1.001642     2.014481 -0.0005948859     18495.98
        9132     1.002064     2.014033 -0.0006507825     18497.57
        9133     1.002556     2.013531 -0.0005834705     18500.32
        9134      1.00293     2.012698 -0.0005828492     18502.75
        9135     1.002896     2.012147 -0.0005826453     18504.62
        9136     1.002704     2.011702 -0.0005385886     18505.47
        9137     1.002568       2.0112 -0.0005683951        18506
        9138     1.002584     2.010544 -0.0005699178     18506.78
        9139     1.002651     2.009874 -0.0005657502     18506.91
        9140     1.002963     2.009422 -0.0005652228     18508.54
        9141     1.003517     2.008937 -0.0005215792     18511.14
        9142     1.003946     2.008283 -0.0005235991     18514.38
        9143     1.003497     2.007787 -0.0004938511      18516.8
        9144     1.002496     2.007328 -0.0004637502     18519.59
        9145      1.00183     2.006962 -0.0005501324     18521.64
        9146     1.001623     2.006428 -0.0005529884     18524.13
        9147     1.001692     2.005587 -0.0005804872     18526.47
        9148     1.001612     2.005116 -0.0005636125     18527.53
        9149     1.001586      2.00464 -0.0004945744     18528.19
        9150     1.001521     2.004173 -0.0005068194     18529.68
        9151     1.001365     2.003609 -0.0005516307     18530.94
        9152     1.001337     2.003088 -0.0005665202     18531.46
        9153     1.001159     2.002433 -0.000538014      18532.1
        9154     1.001031     2.001907 -0.0005352169     18534.24
        9155     1.001103     2.001456 -0.0005246701     18536.25
        9156     1.001361     2.000948 -0.0005899431     18537.64
        9157     1.001634     2.000335 -0.000566994     18539.33
        9158     1.001735     1.999548 -0.0005771176     18541.12
        9159     1.001639     1.999189 -0.0006471769     18543.35
        9160     1.001698     1.998639 -0.0006039467     18545.49
        9161     1.001897     1.997746 -0.0006548684     18548.57
        9162      1.00208     1.997132 -0.0006174103     18551.08
        9163     1.002159     1.996569 -0.0005604963     18553.52
        9164     1.002228     1.996169 -0.0005879715     18556.86
        9165     1.002166     1.995504 -0.0005762488     18559.51
        9166     1.001932      1.99478 -0.0006632688     18560.18
        9167      1.00171     1.994264 -0.0006339293     18561.59
        9168     1.001475     1.993516 -0.0006470326     18563.85
        9169     1.001375     1.992968 -0.0006913684     18567.27
        9170     1.001395     1.992192 -0.0006726111     18570.39
        9171     1.001457     1.991499 -0.0007071907     18572.19
        9172     1.001529     1.990826 -0.0006877891     18573.16
        9173     1.001681      1.99014 -0.0006981228     18573.29
        9174     1.001847     1.989441 -0.0007240517     18573.48
        9175     1.002031     1.988706 -0.0007255172     18574.58
        9176     1.002187      1.98793 -0.0007360832      18575.6
        9177     1.002226     1.987237 -0.0007372501     18576.59
        9178      1.00201     1.986496 -0.0007112338     18576.29
        9179     1.002059     1.985757 -0.0007187723      18576.9
        9180     1.002141     1.985085 -0.0006656542     18577.77
        9181     1.002335     1.984362 -0.0006348324     18579.59
        9182     1.002247     1.983834 -0.0006784288     18580.73
        9183     1.001819     1.983218 -0.0006255486     18580.67
        9184     1.001221     1.982371 -0.0006402348     18581.96
        9185     1.000617      1.98186 -0.0006367668     18583.61
        9186     1.000252     1.981273 -0.0005581983     18584.94
        9187     1.000012     1.980671 -0.000627774      18586.4
        9188    0.9999135     1.980138 -0.000681482     18588.77
        9189    0.9998796     1.979349 -0.0006707002     18589.86
        9190     0.999991     1.978547 -0.0007055667     18590.22
        9191     1.000245     1.977988 -0.0006664873     18591.44
        9192      1.00054     1.977316 -0.0005817456     18593.75
        9193      1.00051     1.976683 -0.0005952612      18596.4
        9194     1.000351      1.97622 -0.0005940661     18598.26
        9195     1.000253     1.975607 -0.000580648     18599.21
        9196      1.00009      1.97494 -0.0006182773     18598.88
        9197     1.000041     1.974361 -0.0006129256     18599.02
        9198     1.000047     1.973747 -0.0005928171     18599.89
        9199     1.000264     1.973155 -0.000638154     18601.91
        9200     1.000492     1.972568 -0.0006962601     18604.32
        9201     1.000778     1.971808 -0.000691226     18606.39
        9202     1.001316     1.970962 -0.0007284328     18607.49
        9203     1.001783      1.97039 -0.000685892     18608.01
        9204     1.002342     1.969655 -0.0006433097     18609.85
        9205     1.002664     1.969064 -0.0006351375     18611.04
        9206     1.002821     1.968388 -0.0006353792      18612.4
        9207      1.00295      1.96785 -0.0006728095     18613.62
        9208     1.002915     1.967113 -0.0006432979     18614.64
        9209      1.00309     1.966373 -0.0006975165     18617.63
        9210     1.003099     1.965815 -0.0006694187     18620.62
        9211     1.003009      1.96506 -0.0006875042     18622.16
        9212     1.003351     1.964436 -0.0007301757     18624.15
        9213      1.00393     1.963623 -0.0006965749     18626.35
        9214     1.003978     1.962895 -0.0007299735     18627.86
        9215     1.003943     1.962273 -0.0007105392     18629.11
        9216     1.003839     1.961516 -0.0006962611     18630.98
        9217     1.003643     1.960781 -0.0007263321      18632.7
        9218     1.003241      1.96011 -0.0007417436     18633.28
        9219     1.002873     1.959368 -0.0007245791     18633.98
        9220     1.002437     1.958549 -0.0007088864     18634.27
        9221     1.002291     1.957883 -0.0007211543     18635.51
        9222     1.002272     1.957274 -0.0006908226     18637.22
        9223     1.002024     1.956483 -0.0007468011     18639.25
        9224     1.001832     1.955785 -0.0007427136     18640.63
        9225     1.001812     1.954895 -0.000709485     18641.92
        9226      1.00193     1.954303 -0.0007360034     18644.73
        9227     1.001908     1.953645 -0.0007575957     18646.86
        9228     1.001792     1.952841 -0.0007916088     18648.85
        9229      1.00154     1.951865 -0.0007938139     18651.02
        9230     1.001517     1.951137 -0.0007673208     18652.27
        9231     1.001633      1.95047 -0.0006920623     18652.53
        9232     1.001909     1.949772 -0.0006778232     18652.74
        9233     1.002071     1.949097 -0.0007173529     18652.04
        9234     1.002159     1.948425 -0.0006959741     18651.58
        9235     1.001854     1.947601 -0.000685398     18652.67
        9236     1.001534     1.946988 -0.0006934666     18654.71
        9237     1.001252     1.946355 -0.0006652303     18656.12
        9238     1.001197     1.945652 -0.0006986925     18656.78
        9239     1.001045      1.94494 -0.000704412     18657.27
        9240     1.000984     1.944193 -0.0006818221     18658.74
        9241     1.001066     1.943538 -0.0007233538     18660.54
        9242     1.001131     1.942924 -0.0007127812     18662.07
        9243     1.001321     1.942046 -0.0007367135     18662.44
        9244     1.001572     1.941342 -0.0007290312      18661.7
        9245     1.001568     1.940591 -0.0007081882     18660.43
        9246     1.001365     1.940008 -0.0006628126     18658.86
        9247     1.001635     1.939214 -0.0006659852     18655.33
        9248     1.001874     1.938691 -0.0007713238     18644.88
        9249      1.00241     1.937927 -0.000593759     18601.22
        9250      1.00294     1.936923 -0.0006416421     18493.77
        9251     1.001918     1.936839 -0.0006768788     18432.52
        9252     1.001242     1.936125 -0.0006615915     18532.39
        9253     1.001588     1.935219 -0.0007781629     18596.64
        9254     1.002048     1.934276 -0.0006966316     18530.51
        9255     1.001322     1.933726 -0.0006283563     18452.69
        9256      1.00039     1.933338 -0.0006292322     18531.08
        9257     1.000262     1.932706 -0.0006553947     18632.95
        9258     1.000472      1.93176 -0.0007142367     18680.74
        9259     1.000517     1.931104 -0.0007664476     18691.84
        9260     1.000436     1.930481 -0.0006654653     18695.52
        9261     1.000309      1.92964 -0.0006643956     18697.62
        9262     1.000237     1.929098 -0.0006653867     18700.08
        9263     1.000174     1.928447 -0.000634321     18702.02
        9264     1.000172     1.927819 -0.0006817607     18703.49
        9265     1.000279     1.927103 -0.0006934997      18704.3
        9266      1.00043     1.926371 -0.0006825396     18704.11
        9267     1.000483     1.925673 -0.0006592686     18704.17
        9268     1.000079     1.925089 -0.0006461353     18704.19
        9269    0.9997928     1.924466 -0.0006290252     18706.25
        9270    0.9996336     1.923786 -0.0006523565     18708.15
        9271    0.9995603     1.923157 -0.000619009     18709.62
        9272    0.9996409      1.92248 -0.0006465034      18711.3
        9273    0.9996924      1.92199 -0.0006366666     18713.58
        9274    0.9996694       1.9212 -0.0006310567     18714.91
        9275    0.9996837      1.92061 -0.0006788716      18714.9
        9276    0.9996699     1.919956 -0.0006241097     18715.25
        9277    0.9996265     1.919274 -0.0006391551     18716.53
        9278    0.9997614     1.918704 -0.0006168006     18719.08
        9279    0.9998863     1.918053 -0.0006084948     18720.66
        9280    0.9999407     1.917488 -0.0006466528     18721.47
        9281     1.000034      1.91684 -0.0006001627     18722.92
        9282     1.000074     1.916117 -0.0006468141     18723.61
        9283     1.000157     1.915653 -0.000647054     18723.57
        9284     1.000381     1.914901 -0.0006058209     18724.72
        9285     1.000506     1.914252 -0.0006497853     18726.64
        9286     1.000669     1.913694 -0.0005933179     18729.23
        9287     1.000625     1.913054 -0.0005828728     18730.93
        9288     1.000283     1.912528 -0.0006155752     18731.16
        9289    0.9999498      1.91192 -0.0005600816     18732.55
        9290    0.9997342     1.911231 -0.0005843676     18732.92
        9291     0.999555     1.910813 -0.000612723     18732.71
        9292    0.9996629      1.91019 -0.000567313     18734.19
        9293    0.9999001      1.90947 -0.0006216881     18735.66
        9294    0.9999556     1.908962  -0.00056364     18736.81
        9295     1.000091     1.908327 -0.0005302165     18738.07
        9296     1.000138     1.907936 -0.0005502885     18739.24
        9297     1.000066     1.907349 -0.000524429      18739.6
        9298    0.9998155     1.906761 -0.0005746364     18741.11
        9299    0.9996697     1.906229 -0.0005811839     18743.13
        9300     0.999662     1.905637 -0.0005652547     18745.23
        9301    0.9998414     1.905024 -0.0006014494     18747.19
        9302    0.9997681       1.9045 -0.0006187794     18747.53
        9303    0.9999337     1.903823 -0.0005759078     18747.74
        9304     1.000154     1.903162 -0.0005848392     18747.39
        9305      1.00036      1.90272 -0.0005537776     18747.34
        9306     1.000703     1.902161 -0.0004849211     18748.01
        9307     1.001029     1.901608 -0.0005258552     18749.96
        9308     1.001096     1.901223 -0.0005095994     18751.11
        9309     1.000934     1.900617 -0.0005265015     18751.95
        9310     1.000781     1.900122 -0.0005992799     18752.66
        9311     1.000801     1.899502 -0.0005817926     18752.85
        9312     1.000804     1.898825 -0.0006439289     18752.64
        9313     1.000914      1.89829 -0.0006835591     18753.71
        9314      1.00113     1.897547 -0.0006330649     18755.71
        9315      1.00129     1.896768 -0.000591471     18756.71
        9316     1.001251     1.896293 -0.0005442468     18757.76
        9317     1.001401     1.895924 -0.0005426211     18759.51
        9318     1.001837      1.89537 -0.0005398491     18762.55
        9319     1.002542     1.894597 -0.0006031104     18764.92
        9320     1.002919     1.894134 -0.0006237847     18764.21
        9321     1.002752     1.893511 -0.0005987029     18762.33
        9322     1.002544     1.892874 -0.0006196895     18761.99
        9323     1.002377     1.892202 -0.0005748328     18762.59
        9324     1.002408     1.891655 -0.0005574608     18762.84
        9325     1.002505     1.891212 -0.0005495043     18764.32
        9326     1.002629     1.890645 -0.0005746169     18766.73
        9327     1.002703     1.890004 -0.0005897702      18768.8
        9328     1.002435     1.889357 -0.000619066        18770
        9329     1.002037     1.888853 -0.0006117103        18771
        9330     1.002007     1.888168 -0.000590733     18773.28
        9331     1.002219     1.887558 -0.0006232874     18773.94
        9332      1.00234     1.886994 -0.0006039759     18772.36
        9333     1.002273      1.88636 -0.0005819065     18771.77
        9334     1.002155     1.885752 -0.0006159566     18772.43
        9335     1.002026      1.88523 -0.0006257027     18775.01
        9336        1.002      1.88453 -0.0005784748     18778.28
        9337     1.001999     1.883857 -0.0005628717     18780.93
        9338     1.001835     1.883439 -0.0005363172     18782.13
        9339     1.001646     1.882978 -0.0005203139     18781.83
        9340     1.001638     1.882385 -0.0006134253     18780.72
        9341     1.001715     1.881776 -0.0006728867     18780.79
        9342      1.00192     1.880985 -0.0006835665     18780.65
        9343     1.001971     1.880287 -0.0006716222     18781.22
        9344     1.001834      1.87965 -0.0006394074     18782.77
        9345      1.00173     1.879089 -0.0006339095     18783.08
        9346     1.001707     1.878427 -0.0005921431     18783.77
        9347     1.001462     1.877751 -0.0006026208     18785.93
        9348     1.000974     1.877282 -0.0005896264      18786.6
        9349     1.000834     1.876679 -0.0005474117     18785.12
        9350     1.000902     1.876069 -0.0005771868     18781.74
        9351     1.000894     1.875562 -0.0006208581     18779.21
        9352     1.000792     1.874973 -0.000594653     18780.78
        9353     1.000824     1.874195 -0.0005819253     18783.79
        9354     1.000726      1.87369 -0.0006430678     18785.29
        9355     1.000603     1.873234 -0.0005965904     18787.18
        9356     1.000678     1.872401 -0.0006382429     18791.28
        9357     1.000861     1.871809 -0.0006851322     18795.07
        9358     1.001077     1.871137 -0.0006367049     18796.61
        9359     1.001182     1.870493 -0.000657434     18796.47
        9360     1.001377     1.869854 -0.0005878063     18794.55
        9361       1.0016     1.869179 -0.0005890394     18792.54
        9362     1.001787     1.868786 -0.0006158481     18790.89
        9363     1.001918     1.868137 -0.0005729098     18790.96
        9364     1.002218      1.86739 -0.0006072025     18792.75
        9365     1.002465     1.866888 -0.0006110535     18793.66
        9366     1.002584     1.866357 -0.0005918191     18794.55
        9367     1.002632     1.865693 -0.0006379184     18798.21
        9368     1.002585     1.865023 -0.0006650875        18803
        9369      1.00239     1.864336 -0.0006053606     18804.73
        9370     1.002163     1.863697 -0.0006021097     18805.81
        9371     1.001997     1.863272 -0.000566482     18807.39
        9372     1.001943     1.862615 -0.0005518584     18809.33
        9373     1.002011      1.86207 -0.0006083246     18809.46
        9374     1.002141     1.861489 -0.0005718863     18808.07
        9375     1.002169     1.860838 -0.0005996166     18807.33
        9376     1.002206     1.860327 -0.0006174032     18807.57
        9377     1.002182     1.859672  -0.00060044     18808.94
        9378     1.002028      1.85902 -0.0006137085     18809.92
        9379     1.001779     1.858436 -0.000586868     18811.64
        9380     1.001575     1.857872 -0.0005792266     18812.42
        9381     1.001415     1.857324 -0.0005836915     18812.37
        9382     1.001352     1.856703 -0.0005913572     18812.82
        9383     1.001392     1.856102 -0.0006077003     18814.49
        9384     1.001198     1.855507 -0.0005997719     18815.99
        9385     1.001013     1.854893 -0.0006329397     18818.14
        9386     1.000872     1.854304 -0.0006383278     18818.58
        9387     1.000764      1.85357 -0.0006482758     18818.84
        9388     1.000707     1.852954 -0.0006525184     18820.16
        9389     1.000714       1.8523 -0.0006480387     18820.23
        9390     1.000829     1.851694 -0.0006434231      18819.8
        9391     1.000873     1.850978 -0.0006087227     18818.92
        9392     1.000714      1.85038 -0.0005753257        18817
        9393     1.000607     1.849865 -0.0005239684     18816.38
        9394     1.000381     1.849392 -0.0005459547     18816.79
        9395     1.000265     1.848882 -0.0005783839     18817.59
        9396     1.000525     1.848196 -0.0006380539     18818.78
        9397     1.000672     1.847552 -0.000683819     18819.53
        9398     1.000702      1.84684 -0.0006278741      18821.1
        9399     1.000483     1.846147 -0.0006020483     18822.03
        9400     1.000533     1.845685 -0.000617809     18822.82
        9401     1.000403     1.845144 -0.0006184203     18822.37
        9402     1.000205     1.844369 -0.0006085696     18822.74
        9403     1.000029     1.843673 -0.0006078382     18824.23
        9404    0.9998427      1.84325 -0.0006159601     18825.52
        9405    0.9997155     1.842712 -0.0005770831     18826.34
        9406    0.9998887     1.841905 -0.0006205754     18828.35
        9407     1.000052     1.841365 -0.0006029062      18829.4
        9408     1.000064     1.840768 -0.000542617     18828.76
        9409    0.9998245     1.840301 -0.0005902103     18827.99
        9410    0.9996639     1.839735 -0.000595758     18829.87
        9411    0.9997916     1.839004 -0.000647752      18830.5
        9412     1.000072     1.838385 -0.0006463645     18830.91
        9413     1.000189      1.83771 -0.0006235814     18832.01
        9414     1.000122     1.837149 -0.0006290777      18832.9
        9415    0.9999814     1.836509 -0.0006248404     18833.41
        9416    0.9998093     1.835869 -0.0006585907     18834.29
        9417    0.9997485      1.83521 -0.0006252345     18833.72
        9418    0.9997565     1.834515 -0.0006058148     18831.85
        9419      0.99977     1.834009 -0.0005912544     18831.78
        9420    0.9997637     1.833445 -0.0005311297     18830.84
        9421    0.9999414     1.832845 -0.0005697107     18829.65
        9422     1.000055      1.83239 -0.0005892995     18829.03
        9423      1.00014      1.83173 -0.000634897     18828.68
        9424     1.000228     1.831088 -0.0006528981     18829.15
        9425     1.000285     1.830306 -0.000651558     18829.21
        9426     1.000267     1.829779 -0.0006310819     18829.02
        9427      1.00028     1.829123 -0.0006088569      18829.3
        9428     0.999982     1.828564 -0.0006204462     18828.76
        9429    0.9995791      1.82787 -0.0006294962     18828.29
        9430    0.9992935     1.827297 -0.0006372684     18828.91
        9431    0.9990396     1.826605 -0.0006135275     18829.72
        9432    0.9986866     1.826015 -0.0006125256     18830.45
        9433    0.9985929     1.825416 -0.0006157113     18831.17
        9434    0.9986767     1.824847 -0.0006190603     18831.19
        9435    0.9987722     1.824143 -0.0005755882     18831.27
        9436    0.9987104     1.823539 -0.0006314945     18831.46
        9437    0.9987916     1.823114 -0.0005867154     18831.92
        9438    0.9989209     1.822321 -0.0005334999      18832.2
        9439    0.9989577     1.821796 -0.0005987433     18831.59
        9440    0.9988993     1.821405 -0.0006245938     18831.14
        9441    0.9986672     1.820719 -0.0006068688     18831.15
        9442    0.9986314     1.819822 -0.000641895     18831.44
        9443    0.9986794     1.819368 -0.0006372269     18830.89
        9444     0.998698     1.818837 -0.0005736684     18829.78
        9445    0.9985774      1.81817 -0.0005846009     18828.99
        9446    0.9985852     1.817528 -0.0005799696     18829.83
        9447    0.9988318      1.81703 -0.0006089444     18831.08
        9448    0.9989762     1.816517 -0.0006331066     18831.44
        9449    0.9991182     1.815734 -0.0005834715     18831.36
        9450    0.9991922     1.814995 -0.0005976551     18831.35
        9451    0.9990963     1.814696 -0.0005789043     18829.93
        9452    0.9992271     1.814127 -0.0005436272     18829.64
        9453    0.9993754     1.813418 -0.000611067     18829.23
        9454    0.9993545     1.812821 -0.0006350164     18829.24
        9455     0.999298     1.812252 -0.000560698     18829.35
        9456    0.9993056     1.811586 -0.0005893906     18828.84
        9457    0.9993884     1.811176 -0.0006127129     18828.11
        9458    0.9995339     1.810463 -0.0005669368     18826.97
        9459    0.9995843     1.809801 -0.000582026     18826.17
        9460     0.999447     1.809319 -0.0005974334     18826.78
        9461    0.9993311     1.808848 -0.0005523393     18827.62
        9462    0.9992772     1.808073 -0.0005374996     18829.11
        9463    0.9989214     1.807592 -0.0005748127     18830.08
        9464    0.9983879     1.807169 -0.0005236996     18830.24
        9465    0.9979299     1.806548 -0.0005949603     18831.06
        9466    0.9972801     1.805979 -0.000599382     18832.29
        9467    0.9967156     1.805212 -0.0005844028      18832.7
        9468    0.9964421     1.804771 -0.000549714     18833.12
        9469    0.9963026     1.804211 -0.0005319455     18832.46
        9470    0.9961102      1.80378 -0.0005772631     18832.18
        9471    0.9960187     1.803084 -0.0005785981     18832.14
        9472    0.9960346     1.802462 -0.0005677415      18831.4
        9473    0.9958623     1.801896 -0.000555035     18830.04
        9474    0.9957097     1.801509 -0.0005385313     18829.16
        9475    0.9955403     1.800864 -0.0005159426     18827.35
        9476    0.9953413     1.800308 -0.0005570515     18826.64
        9477    0.9951139     1.799833 -0.0005337852     18826.72
        9478    0.9952711     1.799281 -0.0005261595     18826.82
        9479    0.9955717     1.798729 -0.0005305735     18827.11
        9480    0.9957161     1.798203 -0.0005796646     18826.79
        9481     0.995738      1.79771 -0.0005734739     18826.83
        9482    0.9954121     1.796962 -0.0005932518     18824.54
        9483    0.9952218     1.796435 -0.0006214691     18821.41
        9484    0.9954701      1.79583 -0.0005764554     18811.39
        9485    0.9958102     1.795224 -0.0005401692     18794.88
        9486     0.995873     1.794656 -0.0005130703      18786.4
        9487     0.995759     1.794274 -0.0005151334     18791.48
        9488    0.9958214     1.793778 -0.000535675      18800.9
        9489    0.9959622     1.793164 -0.0006081104     18809.65
        9490    0.9961256     1.792513 -0.000615434     18811.49
        9491    0.9960907     1.791842 -0.0006191322     18802.02
        9492    0.9957992     1.791316 -0.000588853     18786.53
        9493    0.9953512     1.790687 -0.0005372963     18782.76
        9494    0.9951781     1.790158 -0.000529747     18789.91
        9495    0.9950799     1.789692 -0.0005100851     18801.94
        9496    0.9947546     1.789197 -0.0005357516     18810.47
        9497    0.9945393     1.788647 -0.000575148     18812.11
        9498     0.994459     1.788015 -0.0005910903     18811.49
        9499    0.9945552     1.787392 -0.0005844705     18811.07
        9500    0.9945552     1.787392 -0.0005844705     18811.07
