# This file has been produced by extranormal (v 1.0.1 - February 23, 2017)
# O. Roudenko - Synchrotron SOLEIL. Covered by GPL licence.
#Data from HDF File: /nfs/ruche-rock/rock-soleil/com-rock/2022/Projets/20220725_Gilles/op3_cell3_cell4/op3_cell4_pos2_dq1/op3_cell4_pos2_dq1_0023/op3_cell4_pos2_dq1_0023_08468.nxs to op3_cell4_pos2_dq1_0023_08491.nxs
#Time at start=2022-07-27 14:25:51.488
#Time from start (seconds)=64.7976569383
#Sample temperature (C)=nan
# Normalization -------------
# pivot spectrum: LNO_pristine_av1100_00001.txt
# E0=8332.88   Eshift=-0.136561882479
# E0_pivot = 8349.6
# pre-edge params: from E0_pivot-240.0 to E0_pivot-50.0
# pre-edge range: [8109.6, 8299.6]
# post-edge params: from E0_pivot+70.0 to E0_pivot+1155.0
# post-edge range: [8419.6, 9500.0]
# I jump at E0_pivot = 0.72484320565
# shifted energy	normalized	reference	ref.derivative	I0
        8060  0.001819363     1.040309 -0.000484321     14940.48
        8065  0.001392092     1.037888 -0.0004787268     14959.71
        8070  0.001672565     1.035519 -0.0004582518     14985.41
        8075  0.002055171     1.033231 -0.0004535224     15007.87
        8080  0.003111524     1.031144 -0.0004547267     15031.01
        8085  0.002822345     1.028818 -0.0004564818     15049.47
        8090  0.004299818     1.026425 -0.0004547119     15072.47
        8095   0.00310193     1.024101 -0.0004537254     15096.83
        8100  0.001761731      1.02205 -0.0004426711     15118.12
        8105  0.002189703     1.019743 -0.000437996     15140.89
        8110  0.001266897     1.017572 -0.0004402815     15160.08
        8115 0.0008624181     1.015341 -0.0004275853     15178.82
        8120 0.0006617811     1.013244 -0.0004200894      15199.5
        8125 0.0003999872     1.011191  -0.00040229     15221.06
        8130 -0.0001650252      1.00917 -0.0004115002     15242.97
        8135  0.000103212     1.007296 -0.0004091375     15263.41
        8140 0.0009661596     1.005014 -0.0004087705     15283.03
        8145 0.0004052149     1.003009 -0.0004183379     15305.18
        8150 -0.0005005932     1.000994 -0.0004100286     15323.34
        8155 -0.0003376432    0.9989288 -0.0004231515     15345.88
        8160 -0.0004838747    0.9968135 -0.0004242885     15364.17
        8165 -0.0003714316    0.9945456 -0.000426209     15392.79
        8170 7.329889e-05    0.9925085 -0.0004315737     15409.96
        8175 -0.0005517068    0.9904046 -0.0004234934     15433.94
        8180 0.0001380728     0.988182 -0.0004236713     15453.19
        8185 0.0005448993    0.9860757 -0.0004123642     15473.05
        8190 0.0002720671    0.9840351 -0.0004100967     15495.57
        8195 -0.0003284797    0.9821573 -0.0004084799     15516.79
        8200 -0.0007238434    0.9799801 -0.0004142805     15533.53
        8205 -0.001185881    0.9779061 -0.0004233741     15557.36
        8210 -0.001318942    0.9757495 -0.0004107102     15574.24
        8215 -0.001981522    0.9736898 -0.0004177334      15595.4
        8220 -0.000272405    0.9717659 -0.0004067951     15617.88
        8225 -0.001229498    0.9695515 -0.0003999238     15639.59
        8230 0.0002429457    0.9676136 -0.0004039781     15660.62
        8235 -0.0008671486    0.9656914 -0.0003905419     15677.82
        8240 -0.001026599    0.9636863 -0.0003843098     15699.24
        8245 -0.0006388559    0.9617406 -0.000381052     15721.79
        8250 -0.0007290732    0.9599274 -0.000373362     15739.85
        8255  0.000151622    0.9580703 -0.0003599431     15757.77
        8260  0.002085229    0.9562191 -0.000352126     15777.53
        8265  0.001457161    0.9545418 -0.000357327     15798.48
        8270 -0.0001046037    0.9528849 -0.0003443218     15819.52
        8275 0.0007009344    0.9509238 -0.0003333333     15836.62
        8280 0.0007105885    0.9493326 -0.0003333979     15854.77
        8285 0.0001845024    0.9478751 -0.0003070695     15867.84
        8290 0.0004998454    0.9462169 -0.0002937744     15880.27
        8295   0.00115025    0.9447824 -0.0002773039      15891.3
        8300  0.003538995    0.9436281 -0.0002148204      15819.6
      8300.2  0.003568576    0.9436805  0.000120681     15808.52
      8300.4  0.003610382    0.9436938 9.895552e-05     15798.91
      8300.6  0.003570329    0.9437032  1.77214e-05     15790.56
      8300.8  0.003556083    0.9437072 -0.0001000958     15784.49
        8301   0.00358706    0.9436947 -0.0002625064     15780.55
      8301.2  0.003627426    0.9436137 -0.0004009053     15777.87
      8301.4  0.003702687    0.9434932 -0.0004168973     15776.73
      8301.6  0.003747845    0.9433865 -0.0004362313     15776.21
      8301.8  0.003764229    0.9433612 -0.0004112446      15775.8
        8302  0.003781229    0.9432647 -0.0004380194     15775.18
      8302.2  0.003883643    0.9431642 -0.0006228072     15774.94
      8302.4   0.00402798    0.9430361  -0.00066854     15774.35
      8302.6  0.004157792    0.9428629 -0.0006367232     15773.24
      8302.8  0.004247519    0.9427299 -0.0005754457     15770.99
        8303  0.004434663    0.9426548 -0.0004406031     15768.03
      8303.2  0.004587029    0.9425757 -0.0001704099     15763.88
      8303.4  0.004700338    0.9425104 8.334398e-05     15758.36
      8303.6  0.004789143    0.9425935 0.0002033723     15750.85
      8303.8  0.004872538    0.9427215 0.0003083219     15741.06
        8304  0.004967457    0.9427384 0.0001518374     15728.82
      8304.2   0.00513454    0.9427571 -7.718592e-05      15712.9
      8304.4  0.005412068     0.942715 -0.0002844312     15691.93
      8304.6  0.005733069    0.9426597 -0.000549101     15664.23
      8304.8  0.006303025    0.9425109 -0.000654113     15628.28
        8305   0.00686785    0.9423178 -0.0006496872      15580.1
      8305.2  0.007436943    0.9421917 -0.0004443259     15519.31
      8305.4  0.008033725      0.94214 -0.0001646144     15446.98
      8305.6  0.008357213    0.9421554 9.210622e-06     15365.24
      8305.8  0.008385265    0.9421861 4.631156e-05     15283.75
        8306  0.008174426    0.9421991 0.0002679308     15210.55
      8306.2  0.007685008     0.942177 0.0005713428     15151.19
      8306.4  0.006916358    0.9423698 0.0007455586     15111.05
      8306.6  0.006026439    0.9426432 0.0008454463      15093.2
      8306.8  0.005128832    0.9427955  0.000675475     15098.21
        8307  0.004319724    0.9428534 0.0003152162     15123.87
      8307.2   0.00384824    0.9429102 0.0001627332     15163.71
      8307.4  0.003510324    0.9428954 0.0002111568     15210.81
      8307.6  0.003406079    0.9429257 0.0003014516      15264.9
      8307.8  0.003221047    0.9430223 0.0005992071     15321.76
        8308  0.002892305    0.9431513 0.0007016844     15379.23
      8308.2  0.002510505    0.9433747 0.0005677645     15437.43
      8308.4  0.002336504    0.9434871 0.0002109408     15497.67
      8308.6  0.002292281    0.9434765 -0.0002950826     15559.24
      8308.8  0.002305447    0.9433201 -0.0004899354     15620.11
        8309  0.002430908    0.9431387 -0.0006987264     15677.21
      8309.2  0.002566457    0.9430951 -0.0006894283     15725.53
      8309.4   0.00294618    0.9429176 -0.0006789791     15763.67
      8309.6  0.003464332    0.9427685 -0.0007064915     15790.38
      8309.8  0.003983961    0.9425955 -0.000532999      15803.3
        8310   0.00430174    0.9425299 -0.0003478914     15805.03
      8310.2  0.004333872    0.9424912 -5.039787e-05     15800.13
      8310.4  0.004293039    0.9424902 0.0001326955     15793.12
      8310.6  0.004235058    0.9425552 0.0001353695        15788
      8310.8   0.00402043    0.9426361 -1.520168e-05     15785.41
        8311  0.003697354    0.9425994 -0.0003140611     15787.05
      8311.2  0.003513211    0.9424781 -0.0005975371     15793.61
      8311.4  0.003669625    0.9423039 -0.0006699051     15800.53
      8311.6  0.003954889     0.942158 -0.0004132645     15801.84
      8311.8   0.00422805    0.9420635  3.19424e-05     15795.01
        8312  0.004328148    0.9421474 0.0004334288     15782.92
      8312.2  0.004325469    0.9423295 0.0006585224     15769.14
      8312.4  0.004289346    0.9425048 0.0006119439     15755.36
      8312.6  0.004188737    0.9425903 0.0004250808     15743.47
      8312.8  0.004054744     0.942637 9.571453e-05     15734.98
        8313  0.004201138    0.9426695 -0.0002022924     15728.87
      8313.2  0.004693301    0.9425814 -0.0005074018     15717.59
      8313.4  0.005395529    0.9424285 -0.0008909202     15694.72
      8313.6  0.006295476    0.9422311 -0.001050949     15657.64
      8313.8   0.00731794    0.9419568 -0.0009182359     15601.87
        8314  0.008284637    0.9417406 -0.0005806082     15528.25
      8314.2  0.008943645    0.9416939 -5.166272e-05     15443.71
      8314.4  0.009173774    0.9417666 0.0006084639      15357.1
      8314.6  0.008960591    0.9419155  0.001173574     15278.25
      8314.8  0.008268729    0.9422274  0.001558603     15215.15
        8315  0.007405004    0.9426328  0.001738483     15172.89
      8315.2  0.006470477    0.9430135  0.001689094     15156.17
      8315.4  0.005571994    0.9433063  0.001437945     15164.19
      8315.6  0.004997774    0.9435786  0.001128857      15191.8
      8315.8  0.004744858    0.9437831 0.0008404876     15232.48
        8316   0.00468561    0.9439166 0.0005694811     15277.45
      8316.2  0.004747003    0.9439786  0.000375459     15322.35
      8316.4  0.004869455    0.9440342 0.0003011129     15366.29
      8316.6  0.005000155    0.9440835 0.0003205948     15409.34
      8316.8  0.005088388    0.9441574  0.000307997     15450.85
        8317  0.005177863    0.9442351 0.0003004912     15492.54
      8317.2  0.005191855    0.9442806 0.0003751869     15533.84
      8317.4  0.005192993    0.9443239  0.000423292     15574.59
      8317.6   0.00518054    0.9444576 0.0004425847     15615.27
      8317.8  0.005167414    0.9445738 0.0003576455     15655.77
        8318  0.005225939    0.9446347 0.0001483147     15695.35
      8318.2  0.005370018      0.94461 3.889479e-05     15730.94
      8318.4  0.005645645    0.9445762 0.0001692516     15762.72
      8318.6  0.005811221    0.9446049 0.0003997259     15789.08
      8318.8  0.005966208    0.9447701  0.000623124     15812.22
        8319   0.00609125    0.9449298 0.0006785001     15831.82
      8319.2  0.006218055    0.9450747 0.0005254902        15848
      8319.4  0.006366064    0.9451477 0.0004316315     15861.43
      8319.6  0.006447973    0.9451905 0.0004240864     15872.69
      8319.8  0.006490102    0.9452751 0.0005926753     15882.73
        8320  0.006546389     0.945414 0.0008463941      15892.1
      8320.2  0.006569863    0.9456218  0.000872894     15899.98
      8320.4  0.006545184    0.9458676 0.0009108305     15906.97
      8320.6  0.006645534    0.9459734 0.0009155326     15913.67
      8320.8  0.006637153    0.9461427 0.0009262517     15919.28
        8321  0.006587747    0.9463542  0.001020543     15924.23
      8321.2  0.006669142    0.9466086  0.001032302     15929.85
      8321.4  0.006754324    0.9467898  0.001055865     15935.03
      8321.6  0.006831023    0.9469685  0.001034698     15939.88
      8321.8   0.00684296    0.9471989  0.001076762      15944.4
        8322  0.006917454    0.9474364  0.001214381     15949.28
      8322.2  0.007026378    0.9476513  0.001271331     15954.56
      8322.4  0.007160511      0.94794  0.001303607     15960.26
      8322.6  0.007291127     0.948216  0.001433829     15965.97
      8322.8   0.00733041    0.9484793      0.00155     15971.82
        8323  0.007320308    0.9487983  0.001568711      15978.2
      8323.2  0.007319727      0.94918  0.001612705     15985.42
      8323.4  0.007367292     0.949471  0.001602021     15992.77
      8323.6  0.007424014    0.9497694  0.001544856     15999.92
      8323.8  0.007504456    0.9500799   0.00170108     16007.26
        8324  0.007686837    0.9504159  0.001777461     16014.93
      8324.2  0.007739715    0.9508318  0.001920164     16021.17
      8324.4  0.007827813    0.9511914   0.00185068     16026.45
      8324.6  0.008000633    0.9516161  0.001925937     16030.87
      8324.8  0.008300053    0.9518965  0.002189647      16034.8
        8325  0.008490417    0.9523726  0.002357279     16038.05
      8325.2  0.008586244    0.9529431   0.00278535      16040.3
      8325.4  0.008618501    0.9535019  0.002914775     16041.98
      8325.6  0.008740879    0.9541247  0.002929866     16043.94
      8325.8  0.008929825    0.9547044  0.003117435     16045.59
        8326  0.009043733     0.955287  0.003253664     16046.39
      8326.2  0.009235626    0.9559958  0.003515144     16047.71
      8326.4  0.009481333    0.9567277  0.004006408     16049.25
      8326.6  0.009765536    0.9575165  0.004296348     16050.77
      8326.8  0.009921666    0.9584921  0.004515685     16051.62
        8327   0.01010761    0.9594329  0.004771359     16052.39
      8327.2   0.01032733    0.9603402  0.004935411     16053.25
      8327.4   0.01055307    0.9613336  0.005296852     16054.42
      8327.6   0.01075938    0.9624405  0.005700565      16055.5
      8327.8   0.01095835    0.9636704  0.006146591      16056.5
        8328   0.01118862    0.9649007  0.006615347     16057.57
      8328.2    0.0114489    0.9662509  0.007102502     16058.75
      8328.4   0.01165443    0.9677327  0.007660697     16059.67
      8328.6   0.01187887    0.9693524  0.008258565     16060.49
      8328.8    0.0121108    0.9710292  0.009086969     16061.35
        8329    0.0124074    0.9728577   0.01012093     16062.38
      8329.2   0.01271612    0.9750023   0.01130705     16063.09
      8329.4   0.01306563    0.9774491   0.01263907        16064
      8329.6   0.01349944    0.9800749   0.01419989     16065.17
      8329.8   0.01396055     0.982969   0.01627495     16066.02
        8330   0.01442761    0.9863622   0.01909094     16066.97
      8330.2   0.01483357    0.9904691   0.02260567     16068.06
      8330.4   0.01528252    0.9953476   0.02668188     16069.08
      8330.6   0.01579038     1.001054   0.03134754     16070.06
      8330.8   0.01633307     1.007708   0.03740661     16071.14
        8331   0.01679527     1.015547   0.04507823     16071.22
      8331.2   0.01740618     1.025273   0.05467621     16071.76
      8331.4   0.01815953     1.037116    0.0664321     16072.49
      8331.6    0.0188898     1.051449   0.07933521     16072.56
      8331.8   0.01987574     1.068693   0.09282855     16073.27
        8332   0.02099651     1.088741    0.1064059     16073.73
      8332.2   0.02236078     1.111379    0.1187485     16073.77
      8332.4   0.02392336     1.136573    0.1293878      16074.2
      8332.6   0.02572288     1.163692    0.1378989     16074.33
      8332.8   0.02791241     1.192251    0.1434346     16075.03
        8333   0.03028683     1.221698    0.1464265     16074.69
      8333.2   0.03285662     1.251321    0.1470552     16074.29
      8333.4   0.03553902     1.280833    0.1449952        16074
      8333.6    0.0382197     1.309895    0.1417187     16073.02
      8333.8   0.04095974     1.337694    0.1376845     16072.58
        8334   0.04365323     1.364696    0.1325737     16072.41
      8334.2   0.04610096      1.39098    0.1269407     16072.44
      8334.4    0.0481944     1.415954    0.1201721     16072.62
      8334.6   0.04978601     1.439247    0.1115904     16072.73
      8334.8   0.05086279     1.460834    0.1025992     16072.84
        8335   0.05138896     1.480253   0.09383721     16072.96
      8335.2   0.05146699     1.498034   0.08583664     16072.98
      8335.4   0.05133571     1.514316   0.07786974     16073.09
      8335.6   0.05106283     1.529503   0.07016843     16073.73
      8335.8   0.05072417     1.542548   0.06306983     16073.89
        8336   0.05053631     1.554169   0.05633264     16074.27
      8336.2   0.05042473     1.564772   0.05133669     16074.49
      8336.4   0.05054834     1.574569   0.04749915     16074.91
      8336.6   0.05095231     1.583618   0.04456796     16075.88
      8336.8   0.05151508     1.592168    0.0423754     16076.71
        8337   0.05234047     1.600427   0.04119951     16078.17
      8337.2   0.05332389      1.60847   0.04132118     16079.49
      8337.4    0.0544769     1.616577   0.04262905      16080.8
      8337.6   0.05573226     1.625225   0.04502344     16081.99
      8337.8   0.05719318      1.63453   0.04814136     16082.88
        8338   0.05893627     1.644488    0.0516383     16084.21
      8338.2   0.06079182     1.655091   0.05497789     16085.43
      8338.4   0.06281108     1.666535    0.0581783     16086.61
      8338.6   0.06505042     1.678512   0.06109855      16087.8
      8338.8   0.06746377     1.691031     0.063084     16089.03
        8339   0.07006778     1.703969   0.06437333      16089.7
      8339.2     0.072845     1.717003   0.06485346     16090.63
      8339.4   0.07588891     1.730011   0.06437127     16091.63
      8339.6   0.07920865     1.742914   0.06302795     16092.63
      8339.8   0.08270452     1.755466   0.06129021     16093.18
        8340   0.08652109     1.767425   0.05947589     16093.49
      8340.2   0.09082661     1.779043   0.05826654     16093.93
      8340.4   0.09574309     1.790494   0.05767904      16094.7
      8340.6    0.1012744      1.80208   0.05738602     16095.43
      8340.8    0.1073117     1.813568   0.05723224      16095.7
        8341    0.1138835     1.824952   0.05754004     16095.88
      8341.2    0.1212264      1.83628   0.05896131     16095.95
      8341.4    0.1296692     1.848112   0.06148245     16096.38
      8341.6    0.1393344     1.860737    0.0648877     16097.29
      8341.8    0.1501994     1.874138   0.06840612     16097.77
        8342     0.162243      1.88819   0.07222802     16098.35
      8342.2    0.1752695     1.902837   0.07684093     16098.95
      8342.4    0.1895049      1.91852    0.0821018     16099.97
      8342.6    0.2053622     1.935611   0.08819525     16100.56
      8342.8     0.222556     1.953872   0.09387556     16101.17
        8343    0.2407025     1.973393   0.09872801      16102.2
      8343.2    0.2592724      1.99362    0.1032588     16102.84
      8343.4    0.2783041     2.014593    0.1070459     16103.62
      8343.6    0.2976509     2.036479     0.110745     16104.18
      8343.8    0.3171786      2.05903    0.1141202     16104.75
        8344    0.3366481     2.082216     0.117228     16104.94
      8344.2    0.3560218     2.105889     0.120279     16105.02
      8344.4    0.3754172     2.130261    0.1228818      16105.2
      8344.6    0.3947687     2.155253    0.1254492     16105.33
      8344.8    0.4140164     2.180522    0.1269248     16105.52
        8345     0.433249     2.206249    0.1282832     16105.85
      8345.2    0.4524221     2.231801    0.1300858     16106.46
      8345.4     0.472247     2.257879    0.1319447     16107.41
      8345.6    0.4927231      2.28459    0.1332645     16107.99
      8345.8    0.5138474     2.311804    0.1332936     16108.88
        8346    0.5351763     2.338413    0.1323097     16110.03
      8346.2    0.5565963     2.364514     0.130874     16111.14
      8346.4    0.5784234     2.390438      0.12986     16112.81
      8346.6    0.6009216     2.416504    0.1288942     16113.96
      8346.8    0.6242307     2.442301    0.1255936     16115.02
        8347    0.6481752      2.46763    0.1207536     16116.43
      8347.2    0.6717368     2.490913    0.1150274     16116.93
      8347.4    0.6956287     2.513106    0.1080902     16117.72
      8347.6    0.7199888     2.534323    0.1022505     16118.67
      8347.8     0.744948     2.554102   0.09522509     16119.21
        8348    0.7706279     2.572713   0.08673845     16119.52
      8348.2     0.796284     2.589286   0.07752451     16119.42
      8348.4    0.8216697     2.603713   0.06767294     16119.44
      8348.6    0.8469836     2.616121   0.05897196     16119.31
      8348.8    0.8727963     2.626852    0.0505565     16119.22
        8349    0.8990775     2.636464    0.0422378     16118.67
      8349.2    0.9258139     2.644159   0.03464973     16118.92
      8349.4    0.9528966     2.649912   0.02666697     16118.85
      8349.6    0.9806077     2.654571   0.02012467     16118.45
      8349.8     1.009368     2.657798   0.01497744     16118.27
        8350     1.038805     2.660258    0.0100581     16118.44
      8350.2     1.068821     2.661893  0.005765098      16118.4
      8350.4     1.099412     2.662618  0.001665801     16117.92
      8350.6     1.130837      2.66241 -0.002207921     16118.13
      8350.8     1.163186     2.661591 -0.005615887     16118.82
        8351     1.196269     2.660127 -0.008754482     16119.56
      8351.2     1.229158     2.658125   -0.0109556     16119.72
      8351.4      1.26174     2.655406  -0.01241024     16120.47
      8351.6     1.294131     2.652827   -0.0135745     16120.82
      8351.8     1.326675     2.650199  -0.01388052      16120.5
        8352     1.359162     2.647266  -0.01436995     16120.47
      8352.2     1.390418     2.644302  -0.01468176     16120.53
      8352.4     1.420026     2.641331  -0.01421983     16120.52
      8352.6     1.447916     2.638454  -0.01244714     16121.11
      8352.8     1.474793      2.63589  -0.01169971     16120.99
        8353     1.500101     2.634344 -0.009844443     16121.25
      8353.2     1.523135     2.631971 -0.006814799     16121.81
      8353.4     1.542435     2.630578 -0.004257455     16122.21
      8353.6     1.557963     2.630438 0.0004829968     16122.39
      8353.8     1.569406     2.630938   0.00487252     16122.72
        8354     1.576237     2.632357  0.009663656     16123.21
      8354.2     1.578064     2.634476   0.01420465      16123.8
      8354.4     1.574907     2.638169   0.01871505     16124.56
      8354.6     1.566648     2.642302    0.0238021     16125.35
      8354.8      1.55357     2.647329   0.02831974     16126.54
        8355     1.536265     2.653518   0.03233167     16127.26
      8355.2     1.515132     2.660825   0.03571025     16127.92
      8355.4     1.490717     2.668167   0.03810342      16128.7
      8355.6     1.464041     2.675897   0.03962388     16129.55
      8355.8     1.435526        2.684   0.04075906     16130.04
        8356     1.405836     2.692524   0.04084626     16131.31
      8356.2     1.375649     2.700774   0.04045127     16132.12
      8356.4     1.345636     2.708574   0.03934553     16132.61
      8356.6     1.316411     2.716361   0.03745105      16133.2
      8356.8     1.287804        2.724    0.0346423     16133.93
        8357     1.260221     2.730735   0.03097395     16134.65
      8357.2     1.234221     2.736288   0.02636326     16136.14
      8357.4     1.210366     2.741141   0.02232904     16136.96
      8357.6     1.188611     2.745091   0.01692086     16137.69
      8357.8     1.168948     2.748598   0.01166903     16138.36
        8358     1.151178     2.749825  0.006993882     16139.23
      8358.2     1.134876     2.750476  0.001033033     16140.03
      8358.4     1.120243     2.750686 -0.002677778     16140.67
      8358.6     1.107698     2.749425 -0.006484131     16141.61
      8358.8     1.096924     2.747683  -0.01080225     16142.65
        8359     1.087508     2.745289  -0.01378059     16143.51
      8359.2     1.079252     2.742044  -0.01660665     16144.07
      8359.4     1.072158       2.7384  -0.01878626        16145
      8359.6     1.066073     2.734397  -0.01946496     16145.64
      8359.8     1.060909     2.730259   -0.0199481     16146.59
        8360     1.056471     2.726472  -0.02032058     16147.41
      8360.2     1.052655     2.722442   -0.0205115     16148.16
      8360.4     1.049274     2.718141  -0.02154106     16148.95
      8360.6     1.046286      2.71385  -0.02147983     16149.83
      8360.8     1.043564     2.709239  -0.02115563      16150.3
        8361     1.041034     2.705258  -0.02081839     16151.25
      8361.2     1.038611     2.701216  -0.01944144     16151.92
      8361.4     1.036286     2.697196  -0.01830364     16152.59
      8361.6     1.034084     2.693686  -0.01674926     16153.44
      8361.8     1.031949     2.690615  -0.01578835     16154.32
        8362     1.029753     2.687817  -0.01592078     16155.42
      8362.2     1.027615     2.684565  -0.01632018     16156.52
      8362.4     1.025425     2.680949  -0.01723911     16157.34
      8362.6     1.023236     2.677559  -0.01803247     16158.16
      8362.8      1.02098     2.674026  -0.01895294     16158.94
        8363     1.018688     2.670139  -0.01963281     16159.83
      8363.2     1.016389     2.665787  -0.02085963     16160.78
      8363.4     1.014131     2.661853  -0.02140186      16161.9
      8363.6     1.011916     2.657338  -0.02148553     16163.03
      8363.8     1.009907     2.653017  -0.02264076     16164.31
        8364     1.008042     2.648599  -0.02349479     16165.11
      8364.2     1.006348      2.64374  -0.02455028     16166.23
      8364.4     1.004832     2.638542  -0.02532127     16166.83
      8364.6      1.00359     2.633377  -0.02524964     16167.76
      8364.8     1.002799     2.628342  -0.02433381     16168.75
        8365     1.002337      2.62354  -0.02330364     16170.17
      8365.2       1.0022     2.619075  -0.02211661     16171.12
      8365.4     1.002436     2.614734  -0.02052982     16171.75
      8365.6     1.003047     2.610648  -0.01959811     16172.54
      8365.8     1.004058     2.607117  -0.01808044     16173.59
        8366     1.005561     2.603397  -0.01607329     16175.34
      8366.2     1.007456      2.60027  -0.01530135     16176.69
      8366.4     1.009642      2.59779  -0.01373023     16177.37
      8366.6     1.012153     2.594875  -0.01202446     16178.31
      8366.8      1.01492     2.592412   -0.0110457     16179.18
        8367     1.017687      2.59065 -0.009387156     16179.63
      8367.2      1.02067     2.588953 -0.008294578     16180.62
      8367.4     1.023708     2.587366  -0.00775506     16181.83
      8367.6     1.026837     2.585777 -0.007598632     16183.25
      8367.8     1.029966     2.584446 -0.007257463     16184.27
        8368     1.032969     2.582874 -0.006692119     16185.21
      8368.2      1.03578      2.58156 -0.006388881     16186.28
      8368.4     1.038446     2.580423 -0.005781504     16187.31
      8368.6     1.040834     2.579335 -0.004989505     16188.81
      8368.8     1.042743     2.578249 -0.004136461      16190.1
        8369     1.044266     2.577568 -0.003157689     16191.35
      8369.2     1.045313     2.577114 -0.002119473     16192.75
      8369.4     1.045794     2.576809 -0.001715602     16193.08
      8369.6     1.045749     2.576553  -0.00122461     16193.81
      8369.8     1.045219     2.576196 -0.0006170777     16194.83
        8370     1.044133     2.576134 0.0002221525      16195.5
      8370.2     1.042507     2.576315   0.00129267     16196.12
      8370.4     1.040519     2.576731  0.002279319     16196.73
      8370.6     1.038074      2.57723  0.003439227     16197.85
      8370.8     1.035261     2.577958  0.004725109     16198.67
        8371     1.032185     2.579067  0.005874392     16199.55
      8371.2     1.028845     2.580511  0.007085222     16200.59
      8371.4     1.025338     2.581929  0.007950325      16201.6
      8371.6     1.021564     2.583626  0.009063036     16202.55
      8371.8     1.017688     2.585427    0.0105536      16203.8
        8372     1.013554     2.587762   0.01155662     16204.12
      8372.2      1.00932     2.590372    0.0129002     16204.56
      8372.4     1.005107     2.592871   0.01418057     16205.17
      8372.6       1.0008     2.595747    0.0154403     16205.83
      8372.8    0.9964668     2.599106   0.01674527     16206.83
        8373    0.9920738     2.602724    0.0178967     16207.87
      8373.2     0.987632     2.606267   0.01852374     16208.47
      8373.4    0.9830421     2.610065   0.01867641     16208.71
      8373.6    0.9782582     2.613925   0.01973538     16208.83
      8373.8    0.9734169     2.617666   0.02077451     16209.48
        8374    0.9685345     2.622056   0.02189211     16210.43
      8374.2    0.9636057     2.626684   0.02359372     16211.11
      8374.4    0.9584956     2.631439    0.0240956     16211.38
      8374.6    0.9534132     2.636541   0.02418925     16212.45
      8374.8      0.94824     2.641332   0.02439925     16212.83
        8375    0.9430935     2.646036   0.02501957     16213.22
      8375.2    0.9379523     2.650958   0.02577024     16213.62
      8375.4    0.9328221     2.656556   0.02655042     16214.23
      8375.6    0.9276822     2.661948   0.02751549     16214.99
      8375.8    0.9223645     2.667276   0.02768818     16215.18
        8376    0.9171445     2.672971   0.02825888     16216.29
      8376.2    0.9121465     2.678707   0.02863683     16217.44
      8376.4    0.9073428     2.684556   0.02893269     16218.39
      8376.6    0.9025987     2.690185   0.02940344     16219.59
      8376.8    0.8978753     2.696117   0.03020405     16220.54
        8377    0.8932199     2.702229   0.03084362     16221.61
      8377.2    0.8886458     2.708719   0.03098074     16222.14
      8377.4    0.8843182      2.71486   0.03106135     16222.91
      8377.6    0.8802184     2.720901   0.03036772     16223.49
      8377.8    0.8762743     2.727079   0.02989004     16224.58
        8378    0.8725436     2.733013   0.02957249     16225.61
      8378.2    0.8689868     2.738772   0.02897441      16226.2
      8378.4    0.8655188     2.744559   0.02874895     16226.46
      8378.6    0.8621956     2.750258   0.02883434     16227.11
      8378.8    0.8589771     2.756012   0.02929974     16227.83
        8379    0.8558595      2.76184   0.02909616     16228.53
      8379.2    0.8530241     2.767999   0.02825122     16229.24
      8379.4    0.8503399     2.773535    0.0267315     16229.99
      8379.6     0.847705     2.778613   0.02496612     16230.77
      8379.8    0.8451825     2.783225   0.02403243     16232.12
        8380    0.8427127     2.787972   0.02352535      16233.1
      8380.2    0.8403399     2.792761   0.02314064        16234
      8380.4    0.8379475     2.797433   0.02212707     16234.49
      8380.6    0.8358046     2.801737   0.02076203     16235.32
      8380.8    0.8338248     2.805674   0.01922118     16236.36
        8381    0.8318662     2.809371   0.01763743     16237.01
      8381.2    0.8299921      2.81281   0.01598316     16237.68
      8381.4    0.8282479     2.815847   0.01304348      16238.4
      8381.6    0.8266419      2.81846    0.0108432     16239.07
      8381.8    0.8251276     2.819805  0.008547526     16239.57
        8382    0.8237345     2.821485  0.006336833     16240.17
      8382.2    0.8224769     2.822685  0.004907431     16241.04
      8382.4     0.821331      2.82353  0.002526012     16242.05
      8382.6    0.8202488     2.823731 0.0004952419     16243.21
      8382.8    0.8193383     2.823506 -0.001958482      16244.1
        8383    0.8185767     2.823082 -0.003988745     16245.04
      8383.2    0.8178994     2.821963  -0.00561464     16246.02
      8383.4    0.8172999      2.82054  -0.00761611     16246.87
      8383.6    0.8168587     2.819014 -0.008751725     16247.83
      8383.8    0.8165225     2.816989  -0.01000955     16248.29
        8384    0.8163065     2.814962  -0.01160164     16248.88
      8384.2    0.8162703     2.812533  -0.01301555     16249.58
      8384.4    0.8163566     2.809733  -0.01496959     16250.04
      8384.6    0.8165579     2.806576  -0.01627619        16251
      8384.8    0.8168611     2.802986  -0.01762579     16251.65
        8385    0.8172851     2.799512  -0.01880526     16252.53
      8385.2    0.8177841     2.795632  -0.01961293     16252.95
      8385.4    0.8183932     2.791532  -0.02074213     16253.36
      8385.6    0.8191497     2.787296  -0.02228053     16254.15
      8385.8    0.8200688     2.782918  -0.02381552        16255
        8386    0.8209732     2.777808  -0.02503785     16255.18
      8386.2    0.8219579      2.77248  -0.02637397     16255.19
      8386.4    0.8231891     2.767265  -0.02706837     16256.27
      8386.6    0.8244617     2.761819   -0.0283083     16257.44
      8386.8    0.8256837     2.756153  -0.02937313     16258.02
        8387    0.8269649     2.749833  -0.03008573     16258.83
      8387.2     0.828259     2.743767  -0.03078428     16259.46
      8387.4    0.8296158      2.73775  -0.03087512     16259.95
      8387.6    0.8311056     2.731525  -0.03080344     16260.76
      8387.8    0.8325803     2.725133  -0.03124079     16261.56
        8388    0.8341293     2.719124   -0.0311713     16262.39
      8388.2    0.8357301     2.712758  -0.03060348      16263.1
      8388.4    0.8373107     2.706588    -0.030546     16263.88
      8388.6    0.8389197      2.70065   -0.0297157     16264.91
      8388.8    0.8404959     2.694687  -0.02887092     16265.84
        8389    0.8420281     2.688985  -0.02832201     16266.45
      8389.2    0.8435445     2.683492  -0.02795533     16266.97
      8389.4    0.8451151     2.677993  -0.02752838     16267.66
      8389.6    0.8468065     2.672323  -0.02714097      16268.4
      8389.8    0.8484695     2.666962  -0.02613823     16268.86
        8390    0.8501809     2.661779  -0.02585315     16269.34
      8390.2    0.8519613     2.657082  -0.02533594     16269.56
      8390.4    0.8537818      2.65164  -0.02465646     16270.48
      8390.6    0.8556255     2.646694  -0.02475109     16270.92
      8390.8    0.8574864     2.642054  -0.02324739     16271.34
        8391    0.8592356     2.637281     -0.02232     16271.73
      8391.2    0.8609937     2.633043  -0.02195684     16271.92
      8391.4    0.8628979     2.628838  -0.02133117     16272.68
      8391.6    0.8649823     2.624488    -0.021232     16273.55
      8391.8    0.8669431     2.620216   -0.0209224     16273.64
        8392     0.869012     2.616057  -0.01981476     16274.46
      8392.2    0.8711907       2.6121  -0.01929663     16275.38
      8392.4    0.8734226     2.608636  -0.01864274     16276.02
      8392.6    0.8758022     2.604779   -0.0173092     16276.56
      8392.8    0.8782481     2.601143  -0.01712508     16277.17
        8393      0.88065     2.598252  -0.01611373     16277.82
      8393.2    0.8831368     2.594936  -0.01493458     16278.89
      8393.4     0.885636     2.591888  -0.01473197     16279.76
      8393.6    0.8882639     2.589195  -0.01380575     16280.52
      8393.8    0.8910653     2.586467  -0.01291272      16281.4
        8394    0.8938502     2.583892  -0.01255314     16282.04
      8394.2     0.896632     2.581558  -0.01187627     16282.86
      8394.4    0.8995743     2.579153  -0.01079826      16283.9
      8394.6    0.9025353     2.576966 -0.009947369     16284.38
      8394.8    0.9055469     2.575253 -0.008398175     16284.73
        8395    0.9086208       2.5736 -0.007416768     16284.83
      8395.2    0.9117013     2.572434 -0.006761536     16285.43
      8395.4    0.9148881     2.571032 -0.005796995     16286.21
      8395.6    0.9181986     2.569844  -0.00490534     16287.59
      8395.8    0.9214119     2.568962 -0.003841227     16288.35
        8396    0.9245761      2.56851 -0.002704451     16289.01
      8396.2    0.9277365     2.567959 -0.002183024     16289.38
      8396.4    0.9310497      2.56768 -0.001657043      16290.4
      8396.6    0.9344726     2.567216 -0.001447554     16291.45
      8396.8    0.9379187     2.567184 -0.001120142     16292.12
        8397     0.941342     2.566801 -0.0004601862     16293.32
      8397.2    0.9447998     2.566784 -0.0006462975     16294.29
      8397.4    0.9482163     2.566848 -0.0002006399     16294.77
      8397.6    0.9516609     2.566667 -0.0001905727     16295.11
      8397.8    0.9550615     2.566641 -0.0002933367     16295.41
        8398     0.958427     2.566632 0.0003832249     16295.67
      8398.2     0.961578     2.566613 0.0008941275     16295.63
      8398.4    0.9646599     2.566974 0.0008767223     16296.05
      8398.6    0.9678297     2.567356 0.0007880786     16296.72
      8398.8    0.9709784     2.567333 0.0002176973     16296.95
        8399    0.9741274     2.567243 -0.0005297437     16297.91
      8399.2    0.9771514     2.567148 -0.001087757     16298.52
      8399.4    0.9799788     2.566932  -0.00156685     16298.99
      8399.6    0.9828485     2.566463 -0.002136742     16299.92
      8399.8    0.9856762      2.56599 -0.002985731     16300.59
        8400     0.988351     2.565516 -0.003285558     16301.22
        8401     1.001426     2.562776 -0.003232719     16304.73
        8402     1.014368     2.558531 -0.002952246     16307.83
        8403     1.028281     2.555545  -0.00196251     16310.37
        8404     1.043069     2.553707 -2.029673e-05     16315.02
        8405     1.057743     2.554926  0.002214341     16317.81
        8406     1.071723      2.55845  0.004539271     16322.57
        8407     1.083393     2.564402   0.00602296     16327.53
        8408     1.092377     2.571864  0.006790884     16332.17
        8409     1.098185     2.579018  0.006608255     16337.63
        8410     1.099999     2.585613  0.006077445     16341.21
        8411     1.099087     2.590835  0.005962881     16345.12
        8412     1.095868     2.596174   0.00632777     16348.73
        8413     1.090984     2.602869  0.007407698     16353.18
        8414     1.085154     2.610924  0.008995321     16358.05
        8415     1.079039     2.620466   0.01010997     16362.58
        8416     1.073179     2.632155   0.01095799     16366.78
        8417     1.067108     2.643309   0.01131373      16371.1
        8418     1.060672     2.654756   0.01098222     16376.59
        8419     1.053974     2.665721   0.01085159      16381.2
        8420     1.046978     2.676084   0.01052681     16384.69
        8421     1.039283     2.686716   0.01078856     16387.83
        8422     1.031894     2.696864   0.01157032     16391.21
        8423     1.024402     2.708875   0.01235678     16394.39
        8424     1.017474     2.722365   0.01353124     16396.74
        8425     1.011211     2.736143   0.01399997     16398.34
        8426     1.005934     2.750988   0.01407487     16400.74
        8427     1.001631     2.764875   0.01370959     16404.01
        8428    0.9983693     2.778665    0.0123297     16407.82
        8429    0.9951941     2.790981   0.01043212     16411.02
        8430    0.9922655     2.800307  0.007580176     16413.97
        8431    0.9899801     2.806604  0.003930645     16419.18
        8432    0.9884251     2.808985 0.0003701662     16424.29
        8433    0.9872036     2.806704 -0.003707742     16428.08
        8434    0.9869065     2.801788 -0.007464442     16431.76
        8435    0.9876489     2.791773  -0.01035149     16435.82
        8436    0.9884297     2.779128  -0.01298076     16439.31
        8437    0.9891935     2.765298  -0.01465245     16442.14
        8438    0.9896045     2.749865  -0.01590018     16445.17
        8439    0.9899264     2.733163  -0.01683956     16450.23
        8440    0.9903565     2.715527  -0.01734735     16455.58
        8441    0.9907981      2.69794  -0.01732158     16460.08
        8442     0.991163     2.680476  -0.01681378     16462.63
        8443    0.9911044     2.663876  -0.01599223     16467.18
        8444    0.9907013     2.648272  -0.01462301      16471.4
        8445     0.989929     2.633971  -0.01313748     16474.27
        8446     0.989529     2.621983  -0.01181407     16477.06
        8447    0.9891321     2.611327  -0.01087356      16478.6
        8448     0.988998     2.601016  -0.01112573     16482.83
        8449     0.988969     2.590476  -0.01187585     16487.71
        8450    0.9892226     2.577481   -0.0133092     16493.25
        8451    0.9886142     2.563823  -0.01480615     16496.87
        8452    0.9879417     2.547779  -0.01561645     16500.52
        8453    0.9877106     2.531252  -0.01588974     16505.29
        8454    0.9881676     2.515015  -0.01526985     16508.29
        8455    0.9887336     2.500264   -0.0138157     16511.26
        8456    0.9897797     2.486699  -0.01194851     16515.58
        8457    0.9911838     2.475989 -0.009513141      16520.3
        8458    0.9926126     2.467221 -0.006625953     16523.81
        8459    0.9940788     2.462212 -0.003713678      16527.7
        8460    0.9948366     2.460196 -0.0006884825     16530.59
        8461    0.9956484     2.461134  0.001991445     16533.93
        8462     0.995948     2.464467  0.004525992     16538.84
        8463    0.9956467     2.470177   0.00652931     16542.12
        8464    0.9949914       2.4783  0.008237508     16545.72
        8465    0.9935589     2.487251  0.009605857     16548.77
        8466    0.9919105     2.497417   0.01052881     16553.08
        8467    0.9894488     2.508601   0.01127396      16556.6
        8468    0.9861234     2.520415   0.01149905     16560.02
        8469    0.9819856     2.532347   0.01127693     16563.61
        8470    0.9771309     2.543413   0.01056126      16565.7
        8471    0.9716717     2.553709  0.009343254     16568.56
        8472    0.9660625      2.56266  0.007805985      16571.8
        8473    0.9606176      2.56972  0.006069937     16575.78
        8474    0.9555054     2.574637  0.004022064     16579.92
        8475    0.9512182     2.577988  0.001986748     16583.29
        8476     0.947955     2.578748 9.894507e-05     16586.62
        8477    0.9455656     2.577667 -0.001519131     16588.71
        8478     0.944245     2.575033 -0.002409981     16591.07
        8479    0.9443201     2.571912 -0.002605661      16594.7
        8480    0.9453619     2.569108 -0.002063588     16599.61
        8481    0.9475188     2.567245 -0.0006240924     16605.56
        8482     0.951225     2.566778  0.001673666     16611.53
        8483    0.9553275     2.569415  0.004545412     16616.08
        8484    0.9598386     2.575803  0.008036375     16619.73
        8485    0.9651841     2.585426   0.01176188     16621.83
        8486     0.970877     2.598924   0.01499952     16623.46
        8487    0.9765604     2.616463   0.01774268     16626.48
        8488    0.9823264     2.635801   0.01925367     16630.59
        8489    0.9876979     2.656397   0.01938071     16633.14
        8490    0.9928141     2.675939   0.01899003     16637.02
        8491    0.9977058     2.693986   0.01750298     16641.92
        8492     1.002035     2.711761   0.01562133     16647.43
        8493     1.005705     2.726409   0.01335859     16651.87
        8494     1.008695     2.738424    0.0104518      16654.7
        8495     1.011424      2.74742  0.007894199     16656.97
        8496     1.013906     2.753568  0.005579643     16660.45
        8497     1.015584     2.757986  0.003744843     16663.64
        8498     1.017049     2.760743  0.002226766     16666.62
        8499     1.018354       2.7624 0.0007937986     16668.52
        8500     1.019807     2.762475 -0.0007445555     16672.13
        8501      1.02097     2.761161  -0.00229384      16676.8
        8502     1.022396     2.757764 -0.004146768     16681.29
        8503     1.023979     2.753224  -0.00622755     16686.17
        8504     1.025516     2.745888 -0.008298825     16690.24
        8505     1.027174     2.736251  -0.01062221     16693.95
        8506      1.02889     2.724569  -0.01269909     16696.85
        8507     1.030926     2.710735  -0.01468155     16700.45
        8508     1.032816     2.695092   -0.0167826     16703.87
        8509     1.034178     2.677525  -0.01856155     16706.97
        8510     1.035909     2.657439   -0.0201354      16710.6
        8511      1.03768     2.636489  -0.02142097     16715.05
        8512     1.039632      2.61455   -0.0222632     16719.75
        8513     1.042089     2.591841  -0.02311212     16723.73
        8514     1.046451     2.568386  -0.02385965     16725.38
        8515     1.050828     2.544041  -0.02429539     16713.58
        8516     1.053181     2.519112  -0.02434346     16690.87
        8517     1.054094     2.494659  -0.02363602     16681.58
        8518     1.053247     2.471012   -0.0222009      16679.3
        8519     1.052038     2.449497  -0.02015356     16681.16
        8520     1.050764     2.430308  -0.01760291     16682.93
        8521     1.050789     2.414045  -0.01474185     16687.47
        8522     1.050211       2.4006  -0.01150788     16691.71
        8523      1.04779     2.390529 -0.008020342      16694.8
        8524     1.044931     2.384277 -0.004413319     16700.93
        8525     1.041871     2.381964 -0.0008745439     16703.61
        8526     1.039916     2.382947  0.002490368     16706.55
        8527     1.037912     2.387031   0.00536781     16710.48
        8528     1.034758     2.394238   0.00793153     16719.24
        8529     1.030727     2.403435  0.009936121     16725.54
        8530     1.026164     2.414673   0.01148636     16727.56
        8531     1.022413     2.426776   0.01242215     16728.53
        8532     1.019502     2.440183   0.01276376     16734.46
        8533     1.014918     2.453123   0.01298959     16737.85
        8534     1.009677     2.465728   0.01269398     16740.28
        8535     1.003808     2.478734   0.01202803     16745.15
        8536    0.9988823     2.490959   0.01121677     16748.45
        8537    0.9945084     2.501236   0.01004949     16750.28
        8538    0.9898828     2.510595  0.008880593     16750.21
        8539    0.9856856     2.518932  0.007761779     16751.93
        8540    0.9832202     2.526482  0.006518988     16760.36
        8541    0.9818383     2.532283  0.005264345     16765.55
        8542    0.9809256     2.536671   0.00372136     16766.96
        8543    0.9799446     2.539989  0.002444542     16771.06
        8544     0.980243     2.541367  0.001079007     16777.89
        8545    0.9808611     2.542061 -0.0001155683     16781.73
        8546    0.9800882     2.540987 -0.001188786     16783.47
        8547    0.9798941     2.539527 -0.001833607     16787.07
        8548     0.981041     2.536612 -0.002147887     16791.99
        8549    0.9827749     2.534726 -0.002440019     16796.29
        8550    0.9842756     2.532396 -0.002389399     16800.16
        8551    0.9853451     2.529767 -0.002768694     16806.62
        8552    0.9872332     2.527054 -0.002920337     16806.84
        8553    0.9902093     2.523652 -0.003116367     16809.27
        8554    0.9930293     2.520714 -0.003453111     16813.91
        8555     0.994329     2.517301 -0.003516488     16817.81
        8556    0.9958134     2.513242 -0.003966347     16821.92
        8557    0.9970058     2.509586 -0.004311924     16825.64
        8558    0.9982186     2.504849 -0.004307093     16831.37
        8559     1.000144     2.500054 -0.004249472     16833.27
        8560     1.001017     2.496014  -0.00374284     16833.71
        8561     1.000964     2.492588 -0.002943844     16836.14
        8562     1.001238     2.489878 -0.001827186     16842.28
        8563     1.001137     2.488278 -0.0005340595     16847.25
        8564     1.001241     2.488705  0.001220849     16851.22
        8565     1.001721     2.490452  0.003026659     16854.98
        8566     1.002251     2.494761  0.004889508     16860.45
        8567     1.002388     2.500385  0.006548566     16862.94
        8568      1.00188     2.508263  0.007846202     16863.98
        8569     1.001777     2.516646  0.009049602     16868.63
        8570     1.002572     2.526146   0.00944463     16873.82
        8571     1.003662     2.536583  0.009487211      16880.5
        8572     1.004454     2.546041  0.009084471     16888.84
        8573     1.004959     2.554595  0.008341493     16894.73
        8574     1.006132     2.562484  0.007707547     16897.22
        8575     1.006692     2.569949  0.006946804     16898.77
        8576      1.00751     2.576872  0.006133289     16904.09
        8577     1.009453     2.582382  0.005305861     16907.69
        8578     1.011682     2.587017  0.004242812     16913.36
        8579     1.013092     2.591173  0.003508858      16918.7
        8580     1.014863     2.593843  0.002526495     16922.51
        8581     1.016713     2.596417  0.001360147     16926.54
        8582     1.016703     2.597123 0.0003737174     16931.74
        8583     1.015933     2.596613 -0.0008882544     16936.33
        8584      1.01546     2.595338 -0.001851085     16938.61
        8585     1.015063     2.592864 -0.002807438     16939.21
        8586     1.014883     2.589718 -0.004202725     16940.87
        8587     1.015158     2.585384 -0.005361361     16942.39
        8588     1.015463     2.578527  -0.00679286     16942.78
        8589     1.015971     2.571419 -0.008095419     16946.52
        8590     1.015575     2.562547 -0.008828384      16954.5
        8591     1.015693     2.553002 -0.009867593     16959.28
        8592     1.016218     2.543213  -0.01055739     16959.68
        8593     1.016839     2.531948  -0.01112583     16959.77
        8594     1.018027     2.520318  -0.01173354     16963.13
        8595      1.01983     2.508499  -0.01174471     16967.61
        8596     1.019407     2.496279  -0.01152822     16970.47
        8597     1.017121      2.48497   -0.0112558     16972.53
        8598     1.014895     2.474205  -0.01076826        16974
        8599     1.013249     2.463475  -0.01037838     16978.17
        8600     1.011926     2.453206  -0.00988761     16984.57
        8601     1.010366     2.443456 -0.009102064     16988.92
        8602     1.008775     2.434654 -0.008315528     16989.24
        8603     1.007188     2.427067  -0.00731966     16992.11
        8604     1.005049     2.419944  -0.00628838     17000.39
        8605     1.002462     2.414177 -0.005468785     17007.61
        8606     1.000318     2.409501   -0.0043748     17010.34
        8607    0.9981675     2.405192 -0.003494125     17014.37
        8608    0.9965412     2.402445 -0.002688531     17019.33
        8609    0.9950823     2.400201 -0.001765588     17021.47
        8610      0.99449     2.398747 -0.001168714     17025.04
        8611    0.9938948      2.39813 -0.0006900431        17029
        8612    0.9932638      2.39777 -0.0002533918     17034.34
        8613     0.993173     2.397441 -0.0001490435     17035.71
        8614     0.993574     2.397733 -2.216962e-05     17037.57
        8615    0.9942312     2.397534  3.49322e-05     17041.92
        8616    0.9938945     2.397681 -0.0001642266     17044.49
        8617    0.9932694     2.397581 -0.0001542586     17045.46
        8618    0.9932391     2.397076 -0.0002659745     17047.78
        8619    0.9936058     2.396916 -0.0003324636      17048.2
        8620     0.994471     2.396617 -0.0003071515      17048.9
        8621    0.9949411     2.396251 -0.0003472154     17044.01
        8622    0.9953819     2.395847 -0.0002125781     17024.62
        8623    0.9964326     2.395528 -0.0002543411     16941.31
        8624    0.9957908     2.395767 -6.046076e-05     16802.37
        8625     0.996562     2.395233 -0.0002643851     16833.69
        8626    0.9951552     2.395606 -0.0003770043     16893.47
        8627    0.9962862      2.39447 -0.0002020808     17044.56
        8628    0.9970789     2.394259 -0.000193479     17080.76
        8629    0.9979986     2.394425 0.0003056589     17091.64
        8630    0.9980306     2.394832 0.0005888091     17096.81
        8631    0.9980973     2.395693 0.0009399892     17103.78
        8632    0.9986615     2.396614    0.0012898     17109.05
        8633    0.9984193     2.398185  0.001522929      17110.7
        8634    0.9985657     2.399991  0.001759466      17112.8
        8635     0.998531     2.401784  0.001858373     17116.79
        8636    0.9989935     2.403652  0.002022195     17122.24
        8637    0.9998981     2.405618  0.002064901     17127.94
        8638     1.000386      2.40808  0.002078628     17130.28
        8639      1.00029     2.410044  0.002079039     17131.72
        8640     1.000283     2.411967  0.002059202     17134.76
        8641     1.000646     2.413935  0.001969362     17136.96
        8642      1.00064     2.416317  0.001899048     17139.04
        8643     1.000996     2.417921  0.001887255     17141.73
        8644     1.002105     2.419563  0.001612675     17144.57
        8645     1.002743     2.421484   0.00144189     17146.73
        8646     1.002785     2.422767  0.001170928     17152.08
        8647     1.002493     2.423689  0.001033249     17157.46
        8648     1.002535     2.424247  0.000893087     17161.46
        8649     1.003247     2.425617 0.0007142952      17165.7
        8650     1.004036      2.42634 0.0008381783     17170.76
        8651     1.004384     2.426546 0.0007353918     17175.83
        8652     1.004882     2.427599  0.000728957     17181.71
        8653     1.005674     2.428558 0.0008280517     17183.95
        8654     1.006534     2.429255 0.0007476537     17186.71
        8655      1.00768     2.429858 0.0008569578     17190.44
        8656     1.008873      2.43059 0.0009786203     17195.09
        8657       1.0096     2.431986  0.001127166     17199.29
        8658     1.010293      2.43317  0.001169331     17201.57
        8659      1.01158     2.434367  0.001237666     17205.28
        8660     1.012373     2.435267  0.001332617     17206.32
        8661     1.012453     2.436937  0.001490904     17210.44
        8662     1.012426       2.4385  0.001685217     17213.72
        8663     1.012974     2.440331  0.001659151     17218.22
        8664     1.013619     2.442008  0.001576422     17221.55
        8665     1.014213     2.443573  0.001451391     17221.21
        8666     1.014509     2.444806  0.001168076     17223.38
        8667     1.014662     2.446136 0.0008701817     17228.02
        8668     1.014899      2.44668 0.0005598121     17231.26
        8669     1.014607     2.447054  0.000134381     17235.16
        8670     1.014035     2.447045 -0.0003144533     17240.24
        8671     1.014151     2.446674 -0.0007009112     17245.75
        8672     1.013734     2.445423 -0.001251917     17246.14
        8673     1.012518      2.44425 -0.001726794     17248.92
        8674     1.011153     2.442038 -0.002261126     17253.54
        8675       1.0095     2.439767 -0.002791395     17255.46
        8676     1.007991     2.436378 -0.003180593     17257.46
        8677     1.006737     2.433085 -0.003546359     17261.53
        8678     1.005923     2.429315 -0.003714262     17265.93
        8679     1.005287     2.425581 -0.004009464     17271.45
        8680     1.003855     2.421521 -0.004172309     17274.18
        8681     1.002419     2.417047 -0.004332984     17277.66
        8682     1.000516     2.412626 -0.004402434     17282.35
        8683    0.9986172     2.408249 -0.004437576     17285.61
        8684    0.9970543     2.403911 -0.004549626     17287.26
        8685    0.9955861     2.399297 -0.004610304        17288
        8686    0.9940625     2.394427  -0.00462266     17289.36
        8687     0.993187     2.389808 -0.004459615      17292.4
        8688    0.9921673     2.385421 -0.004071329     17295.22
        8689    0.9908347     2.381458 -0.003707318     17298.85
        8690    0.9901462     2.378142 -0.003212749     17302.34
        8691    0.9902443     2.374979 -0.002749568     17305.84
        8692      0.99017      2.37257 -0.002300953     17308.88
        8693    0.9895028      2.37046 -0.001821455      17312.3
        8694    0.9887837     2.368938 -0.001669903     17316.19
        8695    0.9885072     2.367693 -0.001304734     17321.15
        8696    0.9883089      2.36589 -0.0009848192      17324.6
        8697    0.9883152     2.365241 -0.0007690422     17324.08
        8698    0.9878548     2.364999 -0.0004144131     17311.97
        8699    0.9872595     2.364617 -0.0003411725      17299.2
        8700    0.9876649     2.364232 -0.0004202289     17306.89
        8701    0.9873637     2.363876 -0.0006688874     17317.37
        8702    0.9867308     2.363318 -0.0008431389     17331.08
        8703    0.9865073     2.361941 -0.001134671     17339.19
        8704    0.9868649      2.36086 -0.001580235     17343.97
        8705    0.9877476     2.359338 -0.001768767        17345
        8706    0.9887734     2.356997 -0.002211099     17335.86
        8707    0.9885788     2.354866 -0.002624433     17325.88
        8708    0.9880179     2.352015 -0.002963825     17332.38
        8709    0.9879336      2.34884 -0.003388906     17342.25
        8710      0.98826     2.345142 -0.003628282     17354.49
        8711    0.9883925     2.341311 -0.003819875     17362.71
        8712    0.9885778     2.337502 -0.003800257     17368.32
        8713    0.9885799      2.33356 -0.003644375     17372.61
        8714    0.9884883     2.329941 -0.003478608     17376.03
        8715    0.9884342     2.326733 -0.003091809     17380.44
        8716    0.9882961     2.323588 -0.002683794     17384.45
        8717    0.9883763     2.321193  -0.00230653     17388.25
        8718    0.9882772     2.319206 -0.001773361     17392.36
        8719    0.9879737     2.317507 -0.001349328      17397.6
        8720     0.987513     2.316494 -0.001090578     17402.17
        8721    0.9873975     2.315796 -0.0008206501      17405.1
        8722    0.9876356     2.314843 -0.0006502945     17405.64
        8723    0.9879477     2.314224 -0.0006116753     17407.78
        8724    0.9878297     2.313893 -0.0005050055     17411.97
        8725     0.987819     2.313349 -0.0004972493     17416.13
        8726    0.9881887     2.312823 -0.0004640642     17418.87
        8727    0.9884726     2.312235 -0.0004352538     17424.11
        8728    0.9888147     2.312037 -0.0004436095     17427.31
        8729    0.9897759     2.311608 -0.0003092915      17430.3
        8730    0.9908454     2.311049 -0.0003168908     17431.48
        8731    0.9915883     2.310998 -0.0001915848     17433.83
        8732    0.9920412     2.310769 -0.0001286991     17437.59
        8733     0.992669     2.310842 -0.0001167124     17442.87
        8734    0.9935326     2.310534 -4.62421e-05     17448.16
        8735    0.9945341     2.310531 1.934858e-05     17452.21
        8736    0.9952327     2.310584 8.929908e-05     17453.92
        8737    0.9958165     2.310919 0.0001566501     17456.43
        8738     0.996532     2.310891 0.0002730394     17461.39
        8739    0.9975978     2.311158 0.0001798216     17466.64
        8740    0.9986633     2.311677 0.0002271943     17469.55
        8741     0.999464     2.311638 0.0002884183     17470.69
        8742    0.9997453       2.3118 0.0002804858        17472
        8743      1.00014     2.312312 0.0004874411     17474.82
        8744     1.000588     2.312798 0.0004627664     17476.88
        8745     1.001023     2.313588 0.0003835657     17481.51
        8746     1.001391     2.313651 0.0004460192     17485.33
        8747       1.0019     2.313846 0.0003418284     17486.05
        8748     1.002513     2.314583  0.000411557     17487.33
        8749     1.003259     2.314955 0.0005036152      17488.8
        8750     1.004025     2.315297 0.0003930425     17492.31
        8751     1.005005      2.31586 0.0004473967      17495.8
        8752     1.005799     2.316155 0.0005271815     17497.23
        8753     1.006042     2.316745 0.0004500254     17500.65
        8754     1.005909     2.317406 0.0005319144     17506.09
        8755       1.0056      2.31766 0.0004468452     17509.73
        8756     1.005439     2.318282 0.0003529183     17512.67
        8757     1.005523     2.318532 0.0003414123     17516.01
        8758     1.005369     2.318818 0.0002323015     17516.86
        8759     1.004833     2.319026  0.000307362     17518.76
        8760     1.004794     2.319212 0.0001905808     17524.44
        8761     1.004733     2.319762 0.0001578001     17529.07
        8762      1.00443      2.31958 0.0001911294     17533.58
        8763     1.004125     2.319657   0.00018999     17537.82
        8764     1.003929     2.319976 0.0002404502     17541.17
        8765     1.003606     2.320522 0.0002590627     17543.33
        8766     1.003421     2.320542 0.0001695475     17546.46
        8767     1.002886     2.320694 -3.939795e-05     17548.61
        8768     1.002062     2.320654 7.684394e-05     17551.94
        8769     1.001141     2.320364 -2.626132e-05     17555.83
        8770     1.000453     2.320849 1.763752e-05     17557.93
        8771    0.9995357     2.320588 -1.115017e-05     17560.97
        8772    0.9986124     2.320725 -0.0002158167     17563.91
        8773    0.9978568      2.32032 -0.0003465921     17567.57
        8774    0.9972439     2.319986 -0.0005368277      17570.6
        8775    0.9973526     2.319202 -0.0005491408     17574.14
        8776    0.9974599     2.318578 -0.0007429543     17576.45
        8777    0.9966547     2.318123 -0.0007832518     17578.17
        8778    0.9953805     2.317014 -0.0009596116     17579.16
        8779    0.9944879     2.316069 -0.001233449     17580.87
        8780    0.9938459     2.314739 -0.001277826     17583.41
        8781    0.9936582     2.313189 -0.001500138     17587.59
        8782    0.9935562     2.311903 -0.001688207     17591.13
        8783    0.9941109     2.310069 -0.001811458     17595.04
        8784    0.9946821     2.307986 -0.002011525     17595.71
        8785    0.9952431     2.305943 -0.002186457     17597.75
        8786    0.9954889     2.303857  -0.00235268     17600.19
        8787    0.9955894     2.301323 -0.002341681     17602.61
        8788    0.9956725     2.298576 -0.002471142     17602.54
        8789    0.9958169     2.296577 -0.002524185     17604.39
        8790     0.996151     2.293972 -0.002440193      17608.6
        8791    0.9966862     2.291226  -0.00266053     17612.35
        8792    0.9964549     2.288815 -0.002695953     17616.74
        8793    0.9959965     2.285935 -0.002454498     17620.81
        8794    0.9955688     2.283188 -0.002410037     17622.23
        8795    0.9954761     2.281408 -0.002300509     17625.02
        8796    0.9950445     2.279175 -0.002057842     17627.64
        8797    0.9946592     2.276733 -0.001968672     17628.98
        8798    0.9941176     2.274957 -0.001798866     17630.77
        8799    0.9937781     2.273533 -0.001535217     17632.15
        8800    0.9936928     2.271979 -0.001396889     17634.27
        8801    0.9936803     2.270592 -0.001391523     17637.23
        8802    0.9933883      2.26937 -0.001221676     17639.13
        8803    0.9931258     2.267967 -0.001099622        17642
        8804    0.9931714     2.267092 -0.0009443672     17646.14
        8805    0.9933903     2.266193 -0.0008011669        17649
        8806    0.9937477     2.265592 -0.0006926654     17652.19
        8807    0.9941339     2.264763 -0.0006463267     17655.83
        8808    0.9942256     2.264322 -0.000620862     17657.81
        8809    0.9945666     2.263608 -0.0004552763     17661.23
        8810    0.9945838     2.263109 -0.0005837993     17664.73
        8811    0.9942699     2.262941 -0.0005526621     17667.28
        8812    0.9939098     2.261987 -0.0005139407     17669.88
        8813     0.993654     2.261397 -0.0006324729     17670.49
        8814     0.993594     2.261053 -0.0005932255     17673.77
        8815    0.9932175     2.260412 -0.0006736521     17677.79
        8816    0.9928179     2.259614 -0.0007596455     17681.43
        8817    0.9926987     2.258703 -0.0008579413     17684.11
        8818    0.9928117     2.258014 -0.0008519736     17686.46
        8819    0.9929335      2.25698 -0.0009295518     17689.18
        8820    0.9930394     2.256206 -0.001032395     17691.06
        8821    0.9937761     2.254984 -0.001075711     17691.87
        8822    0.9940771     2.253885 -0.001214149     17692.49
        8823    0.9937922     2.252677 -0.001247647     17691.38
        8824    0.9933743     2.251349 -0.001387446     17690.33
        8825    0.9932759     2.249994 -0.001622815     17690.08
        8826    0.9934828     2.248335 -0.001728857     17687.96
        8827    0.9934108     2.246186 -0.001769778     17682.87
        8828    0.9934762     2.244434 -0.001835264     17674.92
        8829    0.9933215     2.242915  -0.00190976     17656.32
        8830    0.9938744     2.240994 -0.001724495     17612.56
        8831    0.9962493     2.238547 -0.001476812     17475.76
        8832    0.9985316     2.237536   -0.0017506     17195.98
        8833    0.9942088     2.237008 -0.001236494      17200.7
        8834    0.9968297     2.233991 -0.001207454     17331.45
        8835    0.9958428     2.233601 -0.001565216     17215.55
        8836    0.9925345     2.232706 -0.001235598     17459.12
        8837    0.9946375     2.230747 -0.001495786      17687.7
        8838    0.9959802     2.229049 -0.001506237     17742.72
        8839    0.9969354     2.227618 -0.001314398     17756.28
        8840    0.9978094     2.226681 -0.001083894     17762.48
        8841    0.9983268     2.225489 -0.001043211     17765.22
        8842    0.9989284     2.224713 -0.001094964     17767.47
        8843    0.9996794     2.223445 -0.001040991     17769.93
        8844    0.9999676     2.222301 -0.001125364     17773.66
        8845    0.9997454     2.221325 -0.001122307     17775.75
        8846    0.9997051     2.220212 -0.001017658     17777.86
        8847    0.9997672     2.218955 -0.001034169     17779.78
        8848    0.9998987     2.218231 -0.001117732     17784.28
        8849    0.9998597     2.217188 -0.001028441     17788.17
        8850    0.9998924     2.215741 -0.001172432     17791.43
        8851     1.000224     2.214842 -0.001109892     17793.56
        8852     1.000597     2.213541 -0.001027973     17795.98
        8853     1.000434     2.212749 -0.0009645223     17797.71
        8854     1.000534     2.211629 -0.000769488     17799.43
        8855     1.000726     2.210984 -0.0007696424     17802.65
        8856     1.000881     2.210463 -0.0005642595     17804.67
        8857     1.001047      2.20967 -0.000548694     17806.22
        8858     1.001393     2.209372 -0.0007106303     17808.45
        8859     1.001404     2.208789 -0.000571074     17811.88
        8860      1.00139      2.20762 -0.0005544019     17816.23
        8861      1.00138     2.207386 -0.000506771     17821.38
        8862     1.001654     2.207155 -0.0002780844      17827.6
        8863     1.001694     2.206762 -0.0002889234     17831.46
        8864     1.001789     2.206508 -0.0002948593     17832.75
        8865     1.001836      2.20623 -0.0002656238     17833.95
        8866     1.001739     2.205975 -0.0001994756     17836.24
        8867     1.001543     2.205699 -0.0001102826     17837.64
        8868     1.001623      2.20571 6.292228e-06     17840.05
        8869     1.001376     2.205789 5.059049e-05      17841.7
        8870     1.000946        2.206 6.653955e-05     17845.23
        8871      1.00061     2.205902 4.077361e-05     17848.47
        8872     1.000376     2.205976 -4.692117e-06     17851.66
        8873     1.000092     2.205952 9.867218e-05     17856.26
        8874    0.9994882     2.205982 6.999789e-05     17859.81
        8875    0.9991936     2.206296 0.0001727162     17862.24
        8876    0.9995073     2.206256 0.0001483612     17864.83
        8877    0.9997867     2.206643 0.0001484535     17866.78
        8878    0.9997888     2.206575 0.0002527924     17868.27
        8879    0.9995764      2.20689  0.000246466     17870.71
        8880    0.9995421     2.207267  0.000341942        17874
        8881    0.9995547     2.207629 0.0002322901     17877.99
        8882      0.99936     2.207943 0.0002485297     17880.15
        8883    0.9990552     2.207819 0.0002506773     17881.28
        8884     0.999003     2.208262 0.0002581633     17883.17
        8885    0.9985484     2.208632 0.0003146434     17886.86
        8886    0.9972149     2.208975 0.0002174267     17889.99
        8887    0.9962592     2.209078 0.0001592156     17893.39
        8888    0.9956768     2.209131 7.535125e-05     17896.96
        8889    0.9954556     2.209269 6.755194e-05     17899.86
        8890    0.9954849     2.209277 7.494909e-05     17902.99
        8891    0.9957372     2.209348 -5.379202e-05     17906.27
        8892     0.995779     2.209431 -0.0001505393     17907.03
        8893    0.9960948     2.209053 -0.0002929784     17909.49
        8894    0.9965183     2.208675 -0.0004733517     17911.56
        8895    0.9974524     2.208176 -0.0005254018     17915.22
        8896    0.9979568     2.207538 -0.0006433613     17918.53
        8897    0.9976196     2.206952 -0.0007689163      17920.9
        8898    0.9968468     2.206101 -0.0008896185     17923.05
        8899    0.9967491       2.2051 -0.001059159     17926.62
        8900    0.9964515     2.203979 -0.001093829     17928.72
        8901    0.9961981     2.202715 -0.001202398      17931.3
        8902    0.9961522     2.201726 -0.001349299     17935.12
        8903    0.9958917     2.200291 -0.001494103     17937.31
        8904    0.9958849     2.198582 -0.001711123     17940.22
        8905    0.9958848     2.196739 -0.001777799     17941.92
        8906    0.9956278     2.194881 -0.001856874     17943.38
        8907    0.9958678      2.19318 -0.001884437     17946.75
        8908    0.9968897     2.191154 -0.001795445     17949.29
        8909    0.9976911     2.189201 -0.001784983     17951.58
        8910    0.9971545       2.1877 -0.001647205      17955.6
        8911    0.9958423      2.18604 -0.001592189     17959.46
        8912    0.9953935     2.184566 -0.001613106     17963.69
        8913    0.9953126     2.182832 -0.001565442     17965.77
        8914    0.9951135     2.181247 -0.001607842     17966.43
        8915    0.9952289     2.179778 -0.001526705     17969.67
        8916    0.9948014     2.178134 -0.001498159     17970.74
        8917    0.9944218     2.176725 -0.001481444     17972.18
        8918    0.9942487     2.175255 -0.001330267     17974.86
        8919    0.9940278     2.173852 -0.001265098     17978.27
        8920    0.9940732     2.172813 -0.001168802     17982.25
        8921    0.9942072     2.171665  -0.00110937     17984.98
        8922    0.9946135     2.170579 -0.001125027     17987.27
        8923    0.9946739     2.169415 -0.001163551     17989.99
        8924    0.9947899     2.168313 -0.001074663     17992.44
        8925    0.9951873     2.167011 -0.001080852     17995.86
        8926    0.9953675     2.166281 -0.001064554        17999
        8927    0.9958583     2.165091 -0.0009487486     18001.82
        8928     0.996014     2.164055 -0.0009584128     18003.28
        8929    0.9960215     2.163216 -0.0009374692     18004.19
        8930     0.995738     2.162447 -0.0009230421     18006.56
        8931    0.9957139     2.161341 -0.0009119102     18009.63
        8932    0.9956331     2.160363 -0.0009337826     18012.73
        8933    0.9955247     2.159568 -0.0008234819     18016.08
        8934    0.9954732     2.158712 -0.0007821784     18018.36
        8935    0.9955313     2.158047 -0.0007132445     18020.43
        8936    0.9959888     2.157234 -0.000736027     18017.15
        8937    0.9964627     2.156715 -0.0007431517     17992.66
        8938    0.9967092     2.155768 -0.0006999012        17940
        8939    0.9963501     2.155075 -0.0007845804     17921.88
        8940    0.9963145     2.154434 -0.0008042337     17943.79
        8941    0.9963222     2.153577 -0.0008563714      17999.2
        8942    0.9966617     2.152551 -0.0008331827     18021.69
        8943    0.9971327     2.151649 -0.0008192568     18030.01
        8944    0.9972751     2.151102 -0.000791748     18036.28
        8945    0.9973114       2.1503 -0.0008199415      18042.2
        8946    0.9971976     2.149384 -0.0008233178     18046.23
        8947    0.9970598      2.14837 -0.0008735864     18049.49
        8948    0.9968953     2.147808 -0.0008504035     18052.19
        8949    0.9970069     2.146806 -0.0008140614     18054.54
        8950    0.9972353     2.145982 -0.0009019276     18056.57
        8951    0.9976139     2.145113 -0.0008857392     18058.61
        8952    0.9980112     2.144201 -0.0008616027     18061.21
        8953    0.9981126     2.143263 -0.0008020467     18063.93
        8954     0.998644     2.142536 -0.000845249      18067.5
        8955    0.9990802     2.141905 -0.0007912892     18070.68
        8956    0.9993498      2.14082 -0.0008241905     18071.42
        8957    0.9993969     2.140097 -0.0008863599     18072.56
        8958    0.9993068     2.139239 -0.0008585719     18074.85
        8959    0.9992777      2.13836 -0.0009855326      18077.3
        8960    0.9992067     2.137385 -0.0009716359     18078.59
        8961    0.9994007     2.136155 -0.001029792     18081.19
        8962    0.9997818     2.135353 -0.0009682769     18084.59
        8963    0.9997215     2.134241 -0.0009286991     18087.41
        8964    0.9995038     2.133512 -0.0009685477     18089.74
        8965    0.9997143      2.13244 -0.0009911904     18093.87
        8966    0.9997066     2.131478 -0.001087457     18097.43
        8967    0.9999793     2.130276 -0.001045147     18099.72
        8968     1.000507     2.129162 -0.0009954184     18100.81
        8969     1.001471      2.12826 -0.0009499799     18102.07
        8970     1.002326     2.127497 -0.0009257733     18104.52
        8971     1.002103     2.126476 -0.0009486892     18108.39
        8972     1.001861     2.125459 -0.0009992912     18113.18
        8973     1.002201     2.124465 -0.0009467671     18116.47
        8974     1.002686       2.1235 -0.0009035279     18118.28
        8975     1.002932     2.122689 -0.000873294     18119.38
        8976     1.002865     2.121845 -0.0008099462     18121.22
        8977     1.002364     2.120972 -0.0007709228      18122.4
        8978      1.00193      2.12026 -0.0007264817     18124.53
        8979     1.001277     2.119605 -0.0007251298      18126.7
        8980      1.00053     2.118939 -0.0007688592     18127.88
        8981     1.000367     2.118071 -0.000769725     18129.37
        8982     1.000393     2.117184 -0.0008116237     18130.23
        8983       1.0004     2.116526 -0.0007160614     18131.31
        8984     1.000303     2.115693 -0.0006170027     18133.62
        8985     1.000155     2.115207 -0.0006500416     18135.68
        8986     1.000105     2.114716 -0.0006116471      18137.8
        8987      1.00002     2.113926 -0.0006601148     18140.41
        8988    0.9998538     2.113246 -0.0006244383     18141.75
        8989     1.000162     2.112567 -0.0005711599     18144.49
        8990     1.000344     2.112219 -0.0005324492     18146.64
        8991     1.000097     2.111641 -0.0005038563     18147.26
        8992    0.9998566     2.111116 -0.000602835     18148.39
        8993    0.9995891     2.110551 -0.0005896245     18150.13
        8994     0.999508     2.109807 -0.0005623238     18151.92
        8995    0.9994918     2.109283 -0.0005552229     18154.43
        8996    0.9994683     2.108867 -0.0005064395     18157.33
        8997    0.9991901      2.10833 -0.0005270127     18159.94
        8998    0.9989798     2.107781 -0.0005591793     18161.72
        8999    0.9989445     2.107175 -0.0005574969     18163.84
        9000    0.9989061      2.10663 -0.0005280983     18165.64
        9001    0.9991083       2.1061 -0.0005203839     18167.82
        9002    0.9991411     2.105669 -0.0005498611     18170.55
        9003    0.9995317     2.105093 -0.0004575334     18173.94
        9004    0.9999538     2.104431 -0.0005645733     18177.04
        9005    0.9998314      2.10427 -0.0004789502     18180.08
        9006    0.9995166     2.103411 -0.0004033892     18182.25
        9007    0.9992598     2.103178 -0.0005477093     18184.93
        9008    0.9992119     2.102817 -0.0004825373     18187.55
        9009    0.9995548     2.102079 -0.0004744954        18190
        9010    0.9996067     2.101481 -0.0005015654     18190.27
        9011    0.9995561      2.10128 -0.0004085575     18192.48
        9012    0.9991487     2.100811 -0.0003456618     18194.52
        9013    0.9986582     2.100445 -0.000394476     18195.56
        9014    0.9984716     2.100098 -0.0003868866     18198.33
        9015    0.9984633     2.099702 -0.0003835342     18201.01
        9016    0.9982159     2.099264 -0.000409702     18203.68
        9017    0.9980615     2.098911 -0.0004618625     18206.09
        9018    0.9977571     2.098459 -0.0004213549     18207.18
        9019    0.9979951     2.097854 -0.0005517351     18210.84
        9020    0.9981601     2.097578 -0.0005792097     18214.59
        9021    0.9984059     2.096704 -0.0004742665     18216.47
        9022    0.9985917     2.096142 -0.0005776303     18218.67
        9023    0.9987173     2.095957 -0.0005135719      18222.1
        9024    0.9986381     2.095268 -0.0005446936     18224.74
        9025    0.9983003      2.09465 -0.0007073682     18226.25
        9026    0.9980429     2.093964 -0.0007031828     18227.89
        9027    0.9979117     2.093128 -0.0006888888     18230.58
        9028    0.9978462     2.092455 -0.0006495996      18234.2
        9029    0.9977926     2.091894 -0.0006312649     18236.91
        9030    0.9981198     2.091365 -0.0007051555     18239.35
        9031    0.9983751     2.090603 -0.0007550793      18241.4
        9032    0.9986302     2.089634 -0.0007906402     18243.18
        9033    0.9987407     2.088874 -0.0007956674      18243.8
        9034    0.9990518     2.088203 -0.0006769601      18245.3
        9035    0.9993517      2.08742 -0.0007665914     18248.38
        9036    0.9996988     2.086927 -0.0008406168     18251.38
        9037    0.9999215     2.085808 -0.0007498595     18254.34
        9038    0.9999112      2.08484 -0.0008094336      18256.3
        9039    0.9993229     2.084421 -0.000723131     18256.39
        9040    0.9988761     2.083689 -0.0006862803     18256.95
        9041    0.9985822     2.082915 -0.0007202079     18258.88
        9042    0.9984498     2.082095 -0.0008003362     18260.84
        9043    0.9985573      2.08154 -0.0007912591      18262.8
        9044    0.9988346     2.080487 -0.0007610841     18265.16
        9045    0.9995732      2.07975  -0.00085708     18269.75
        9046     1.000174     2.079051 -0.0007865333      18272.5
        9047     1.000654     2.078111 -0.0008552354     18274.71
        9048     1.000645     2.077341 -0.0009292834     18276.97
        9049     1.000713     2.076329 -0.0009161793     18278.85
        9050     1.000521     2.075334 -0.0009078017     18277.78
        9051     1.000276     2.074447 -0.000835123      18279.7
        9052     1.000017      2.07371 -0.0007750383      18282.8
        9053     1.000038     2.072989 -0.0008044254     18286.57
        9054     1.000029     2.072233 -0.0008976446     18289.07
        9055     1.000662     2.071229 -0.0008645791     18291.53
        9056     1.001167      2.07012 -0.0009334784     18292.58
        9057     1.001329      2.06953 -0.0009307753     18293.42
        9058      1.00139     2.068499 -0.0008494924     18293.96
        9059     1.001589     2.067506 -0.0009386987     18295.73
        9060     1.001343     2.066722 -0.0008552994     18297.17
        9061     1.001372     2.065776 -0.0008728783     18297.93
        9062     1.001615     2.065078 -0.0009656242     18299.38
        9063     1.001661     2.064014 -0.0008554797     18299.55
        9064     1.001898     2.062859 -0.0008955946     18301.61
        9065     1.002202     2.062354 -0.0007811317     18304.35
        9066     1.002655     2.061496 -0.000709095     18306.43
        9067     1.003129      2.06089 -0.0008034792     18308.84
        9068     1.003284     2.060023 -0.0008633126     18310.45
        9069     1.003354      2.05914 -0.0008663017     18313.18
        9070     1.003495     2.058043 -0.000876561     18316.33
        9071     1.003719     2.057425 -0.0008463423     18318.42
        9072     1.003949     2.056516 -0.0007601094     18321.65
        9073     1.003909     2.055754 -0.0007766688     18323.65
        9074     1.003903     2.055002 -0.0007482141     18325.42
        9075     1.004082     2.054318 -0.0007636077     18327.45
        9076      1.00389     2.053524 -0.0008556693     18328.54
        9077     1.003439       2.0527 -0.0008087306     18330.98
        9078     1.003084     2.051579 -0.0008229029     18333.27
        9079     1.002703     2.051083 -0.0008475512     18334.62
        9080     1.002471     2.050232 -0.0007352199     18335.61
        9081     1.002195      2.04931 -0.0008337511     18335.91
        9082     1.002033     2.048639 -0.0008108303     18336.02
        9083     1.001983     2.047748 -0.0007291497     18335.11
        9084     1.001887     2.046989 -0.0008179903     18331.94
        9085      1.00173     2.046393 -0.0007968883     18317.57
        9086     1.001848     2.045367 -0.0008852592     18290.32
        9087     1.002305      2.04456 -0.0008990872     18272.42
        9088     1.003077     2.043448 -0.0008180898     18266.74
        9089     1.003471     2.042797 -0.0007896774     18260.56
        9090     1.003697     2.042094 -0.0007551007     18235.32
        9091     1.003635     2.041402 -0.0008180525     18179.75
        9092     1.003817     2.040427 -0.0006313988     18140.55
        9093     1.004822     2.039525 -0.000704674     18045.58
        9094     1.002355     2.039569 -0.0008155071     18036.18
        9095     1.002233     2.038583 -0.0007183117     18195.87
        9096     1.003818     2.037165 -0.0007587001     18213.11
        9097      1.00424     2.036651 -0.0006932697     18081.55
        9098       1.0021     2.036534 -0.0006514252     18077.67
        9099     1.001528      2.03581 -0.0007241448     18183.62
        9100     1.002197     2.034559 -0.0008579695      18265.1
        9101     1.002387     2.033755 -0.0008573801     18281.43
        9102     1.001968     2.033102 -0.0008251708     18301.08
        9103     1.002005      2.03238 -0.0008034838     18322.14
        9104     1.002092     2.031259 -0.0007714072     18334.33
        9105     1.002452     2.030541  -0.00083442     18343.04
        9106     1.002632     2.030016 -0.000734495     18352.93
        9107     1.003045     2.029043 -0.0007229214     18368.13
        9108     1.003561     2.028321 -0.0008505775     18384.86
        9109     1.004436     2.027649 -0.0007744794     18394.69
        9110     1.005137     2.026614 -0.0007967324     18401.02
        9111     1.004671     2.025945 -0.0008011547     18405.23
        9112     1.004256     2.025134 -0.0007595781     18408.06
        9113     1.004025     2.024444 -0.0008208533     18409.64
        9114     1.004095     2.023576 -0.0008070914     18413.04
        9115     1.003932     2.022661 -0.0008248547     18417.38
        9116     1.003793     2.021906 -0.0008096182     18421.49
        9117      1.00363     2.021145 -0.0007794218     18425.37
        9118     1.003431     2.020337 -0.0007373069      18428.2
        9119      1.00343     2.019544 -0.000749441     18430.11
        9120     1.003788     2.018956 -0.0007340788     18430.92
        9121     1.004355     2.018147 -0.0007377091     18431.96
        9122     1.005216     2.017401 -0.000735447     18432.23
        9123       1.0067     2.016593 -0.0007574726     18433.31
        9124     1.007981     2.016014 -0.0007240555     18434.51
        9125     1.009267     2.015117  -0.00073035     18437.66
        9126     1.009729     2.014505 -0.0007524008     18441.24
        9127     1.009444     2.013672 -0.000654595      18444.7
        9128     1.008471     2.013005 -0.0007362195     18446.55
        9129     1.007425     2.012499 -0.0006480347     18449.12
        9130     1.006607      2.01156 -0.0006004133     18450.94
        9131     1.006029     2.011079 -0.0006005164     18451.56
        9132     1.005782     2.010603 -0.000557998     18452.51
        9133     1.005701     2.010097 -0.0006055756     18454.36
        9134     1.005616     2.009328 -0.000673897     18456.85
        9135     1.005225     2.008657 -0.0006455058      18459.2
        9136       1.0049     2.007908 -0.0006029636     18460.83
        9137     1.004173     2.007515 -0.0006015926     18460.98
        9138     1.003133     2.006916 -0.0005618091     18460.64
        9139      1.00257     2.006251 -0.0005058981     18461.41
        9140      1.00239      2.00566 -0.0005461521     18462.26
        9141     1.002393     2.005491 -0.000491336     18465.23
        9142     1.002569     2.004731 -0.0005289191     18468.84
        9143     1.002461     2.004285 -0.0005918487     18471.19
        9144     1.002328     2.003545 -0.0005498524     18473.86
        9145     1.002136     2.003124 -0.0005246445     18476.84
        9146     1.001985     2.002532 -0.0004242704     18478.55
        9147      1.00162     2.002187 -0.0004993337     18479.85
        9148     1.001283     2.001848 -0.0005013399     18481.38
        9149     1.001083     2.001127 -0.0005613184     18482.05
        9150     1.000952     2.000527 -0.0005918875     18483.86
        9151     1.000862     1.999942 -0.0005001608     18484.73
        9152     1.000717      1.99948 -0.0005343206     18484.17
        9153     1.001082     1.999126 -0.0005390191     18486.04
        9154     1.001172     1.998389 -0.0005577093     18488.33
        9155     1.000712     1.997785 -0.000554459     18490.01
        9156     1.000283     1.997249 -0.0005254246     18491.61
        9157     1.000312     1.996908 -0.0005243448     18493.24
        9158     1.000409     1.996288 -0.0005371623     18495.64
        9159      1.00031     1.995688 -0.0005489922     18497.28
        9160     1.000371     1.995101 -0.0005133106      18499.5
        9161     1.000589     1.994712 -0.0005581439     18502.02
        9162      1.00102     1.994234 -0.0005716331     18504.88
        9163     1.001442     1.993455 -0.0006575189     18506.85
        9164     1.001592     1.992814 -0.0007269101     18509.53
        9165     1.001689     1.992082 -0.0006827325     18511.97
        9166     1.002103     1.991327 -0.0006725381     18513.22
        9167     1.002413     1.990725 -0.0006460935     18514.83
        9168     1.002353     1.990124 -0.0005799218     18516.33
        9169     1.002348     1.989498 -0.0006439786        18520
        9170     1.002218     1.989007 -0.0007000855     18523.48
        9171     1.002198     1.988149 -0.0007301682     18524.49
        9172     1.002674     1.987324 -0.0007819522     18525.46
        9173     1.003182     1.986577 -0.0007299074     18526.17
        9174     1.003399     1.985879 -0.0007303121     18526.19
        9175     1.003401     1.985229 -0.0007356208     18526.81
        9176     1.003279     1.984402 -0.0006677701      18528.2
        9177     1.003191     1.983635 -0.0006902708     18528.57
        9178     1.002712     1.983208 -0.0006530843     18528.18
        9179      1.00239     1.982468 -0.0006590614     18528.41
        9180     1.002195      1.98179 -0.0006629714     18529.59
        9181     1.002164     1.980998 -0.0006455668     18530.98
        9182     1.002206     1.980556 -0.0006957238     18531.89
        9183     1.002145     1.979886 -0.0006726112     18532.52
        9184     1.002148     1.979007  -0.00071259     18533.66
        9185     1.002239     1.978308 -0.0006650201     18535.24
        9186     1.002546     1.977706 -0.000663116     18536.74
        9187     1.002393     1.977226 -0.0006210098     18538.29
        9188     1.002469     1.976355 -0.0006012789      18540.6
        9189     1.002575     1.975824 -0.0006654662        18541
        9190     1.002862     1.975301 -0.0005750613     18540.77
        9191     1.003302     1.974564 -0.0005760278     18542.78
        9192     1.003152     1.974054 -0.0006337077     18544.65
        9193     1.002918      1.97352 -0.0005692234     18547.51
        9194     1.003073     1.972766 -0.0006302248     18548.87
        9195     1.003438     1.972287 -0.0006736684     18549.79
        9196     1.003819     1.971534 -0.0006629926     18549.82
        9197     1.003955     1.970825 -0.0007122542     18550.38
        9198     1.003945     1.970114 -0.0006143366     18551.62
        9199     1.003591     1.969438 -0.0006204191     18552.38
        9200     1.003369     1.969076 -0.0006212201     18555.33
        9201     1.003344     1.968343 -0.0006098286     18557.54
        9202     1.003554     1.967629 -0.000640427     18557.87
        9203      1.00398     1.966998 -0.0006569712     18558.83
        9204     1.004243     1.966514 -0.0006636161     18560.04
        9205     1.004313     1.965715 -0.0006014498     18562.38
        9206     1.004148     1.964975 -0.0006329046     18562.85
        9207     1.003855     1.964593 -0.0006513219     18564.04
        9208     1.003337     1.963983 -0.0006393174     18565.04
        9209     1.003106      1.96311 -0.0007434435     18567.64
        9210      1.00298     1.962417 -0.0007677013     18571.06
        9211     1.002786     1.961619 -0.0007044352      18573.7
        9212     1.002799     1.960912 -0.0006512761     18575.32
        9213     1.002945     1.960292 -0.0006621172     18576.61
        9214     1.003087     1.959812 -0.0007170991     18577.19
        9215     1.003387      1.95897 -0.0006805675     18579.13
        9216     1.003364     1.958044 -0.0008181808     18579.85
        9217     1.003526      1.95757 -0.000799616     18582.46
        9218     1.003235      1.95654 -0.0007044576     18582.96
        9219     1.002482     1.955772 -0.0007992224      18583.4
        9220     1.001835     1.955226 -0.000712363     18584.03
        9221     1.001443     1.954373 -0.0007115091     18585.74
        9222     1.001531      1.95369 -0.0007103893     18587.89
        9223     1.001835     1.952926 -0.0007084506     18589.88
        9224      1.00206     1.952384 -0.0007293312     18591.13
        9225     1.001908     1.951539 -0.0007470386     18591.66
        9226     1.001963     1.950773 -0.0007918609     18593.81
        9227     1.002121     1.949938 -0.0006846049     18596.71
        9228     1.001888     1.949217 -0.000729087     18598.51
        9229     1.001759     1.948801 -0.0007306429     18599.55
        9230     1.002238     1.947856 -0.0006732337      18601.1
        9231     1.002736     1.947015 -0.0008362138     18601.32
        9232     1.002618     1.946524 -0.0007186241     18601.29
        9233     1.002449     1.945456 -0.0006239663     18601.67
        9234     1.002351     1.944982 -0.0007227543     18601.96
        9235     1.002076     1.944519 -0.0006607491     18601.27
        9236     1.002028     1.943633 -0.0006623498      18603.2
        9237       1.0018     1.942813 -0.0007168772     18604.27
        9238     1.001512     1.942333 -0.0007200483      18605.3
        9239     1.001399     1.941652 -0.000682945     18606.32
        9240     1.001225     1.940753 -0.0007713079     18608.31
        9241     1.000873     1.940081 -0.0007372205     18609.68
        9242     1.000651     1.939247 -0.0007068526     18610.65
        9243     1.000535     1.938703 -0.0007292503     18610.88
        9244     1.000282     1.937925 -0.0006910242     18610.18
        9245     0.999907     1.937164 -0.0006996554     18608.59
        9246    0.9997199     1.936483 -0.0006422923     18607.36
        9247    0.9997274     1.935904 -0.0007440536     18603.83
        9248    0.9999757     1.935356 -0.000802559     18594.89
        9249     1.000276     1.934188 -0.0006846425     18555.02
        9250     1.000829     1.933273 -0.0006848264      18434.6
        9251    0.9991809     1.933166 -0.0006444111     18374.33
        9252    0.9985802     1.932617 -0.0006814982      18493.4
        9253    0.9991701     1.931611 -0.0006192076     18553.99
        9254       1.0002     1.930547 -0.0006112057     18478.33
        9255    0.9990009     1.930689 -0.000604221     18389.92
        9256    0.9985639     1.930172 -0.0005760017     18489.63
        9257    0.9988327     1.929194 -0.0007598166     18584.58
        9258    0.9993219     1.928243 -0.000805991     18629.44
        9259    0.9997044      1.92765 -0.0007480139     18640.02
        9260    0.9997634     1.926948 -0.0006289657     18642.71
        9261            1     1.926202 -0.0006361482     18646.12
        9262     1.000191     1.925727 -0.000707617     18648.58
        9263      1.00043     1.925105  -0.00060605     18649.92
        9264     1.000741     1.924118 -0.0006722257      18650.9
        9265     1.000543     1.923777 -0.0006933229     18652.02
        9266     1.000582     1.923038 -0.0006317031     18651.79
        9267     1.000593     1.922332 -0.0006952856     18651.01
        9268     1.000448     1.921591 -0.0006662877     18651.09
        9269     1.000083     1.920996 -0.0006393596     18653.35
        9270    0.9995694     1.920373 -0.0006072564     18654.86
        9271     0.999427     1.919774 -0.0005894511     18655.89
        9272    0.9991337     1.919162 -0.0006077228      18657.1
        9273    0.9989812     1.918638 -0.0006195651     18660.33
        9274    0.9991176     1.917942 -0.0006606288     18662.21
        9275     0.999266     1.917296 -0.0006428744     18662.17
        9276    0.9996147     1.916519 -0.0006341069     18661.17
        9277     1.000114     1.916067 -0.0006451455     18662.22
        9278     1.000255     1.915406 -0.0006115138     18664.65
        9279    0.9999712     1.914715 -0.0006801457     18666.97
        9280    0.9994469     1.914073 -0.0006159226     18666.95
        9281    0.9994429     1.913346 -0.0006404507     18668.57
        9282    0.9996501     1.912942 -0.0006003917     18670.13
        9283     1.000083     1.912154 -0.000611144     18670.34
        9284     1.000104     1.911672 -0.0006563213     18670.43
        9285     1.000161     1.910902 -0.0006510778     18672.91
        9286     1.000173     1.910317 -0.0006539845     18674.44
        9287      1.00001     1.909549 -0.0006147953     18676.35
        9288     1.000161     1.909056 -0.0006117409     18677.02
        9289      1.00055     1.908443 -0.0006455527     18678.84
        9290     1.000557      1.90787 -0.0005890617     18678.45
        9291     1.000391     1.906967 -0.0005002979     18679.01
        9292      1.00025     1.906699 -0.0005849254     18679.55
        9293     1.000232     1.906441 -0.0004988077     18680.92
        9294     1.000195      1.90553 -0.0005109755     18682.13
        9295     0.999989     1.904972 -0.0006764284     18684.19
        9296       0.9998     1.904655 -0.0005370963     18684.55
        9297    0.9998367     1.903736 -0.0005106769      18684.7
        9298    0.9996605     1.903382 -0.0005930322      18686.7
        9299    0.9995171     1.902929 -0.0005269573     18688.09
        9300    0.9994486     1.902283 -0.0005590363     18690.59
        9301    0.9995538     1.901628 -0.0006168427     18691.98
        9302    0.9996342     1.901146 -0.0005732627     18692.85
        9303    0.9997038     1.900462 -0.0005888403      18693.3
        9304     0.999707      1.89999 -0.0005839912     18691.66
        9305    0.9997685     1.899273 -0.0005916668      18691.9
        9306    0.9995499      1.89881 -0.0005556298     18692.87
        9307    0.9994347     1.898095 -0.000557798     18693.98
        9308    0.9991516     1.897768 -0.0005857265     18695.14
        9309    0.9990483     1.897041 -0.0005710856     18696.16
        9310     0.999067     1.896467 -0.0006428584      18696.5
        9311    0.9993138     1.895811 -0.0005546188     18696.47
        9312    0.9994833     1.895196 -0.000580604     18696.78
        9313     0.999642     1.894823 -0.0005515895     18697.83
        9314    0.9995275     1.894144 -0.0005169765     18699.34
        9315    0.9993793     1.893604 -0.0005698528     18700.15
        9316    0.9991708     1.893128 -0.0005744915     18701.66
        9317    0.9990042     1.892543 -0.0005605579      18703.2
        9318    0.9989736     1.891846 -0.0005882312     18705.79
        9319    0.9988301     1.891362 -0.0006269523     18708.59
        9320    0.9988072     1.890775 -0.0005820887     18707.63
        9321    0.9990401     1.890036 -0.0005986508     18705.85
        9322    0.9992694     1.889518 -0.0006196047     18704.25
        9323    0.9995961     1.888968 -0.000591194     18705.19
        9324    0.9998839     1.888297 -0.0005860625     18706.99
        9325    0.9999595     1.887671 -0.0006025427     18707.98
        9326     1.000145     1.887174 -0.0005447817     18709.53
        9327      1.00026     1.886557 -0.0005611867     18711.02
        9328     1.000243     1.886118 -0.0006001196     18712.84
        9329     1.000405     1.885426 -0.0005939318      18713.9
        9330     1.000648     1.884773 -0.0006688177     18715.43
        9331     1.000787     1.884182 -0.0006063466     18716.44
        9332     1.000654     1.883443 -0.0005483345     18715.92
        9333     1.000446     1.883001 -0.0005700811     18713.88
        9334     1.000377      1.88258 -0.0005574373      18714.7
        9335     1.000578     1.881901 -0.0005947253      18717.4
        9336      1.00111     1.881213 -0.0006338562     18720.49
        9337     1.001414     1.880622 -0.0006144226     18723.32
        9338     1.001235     1.880045 -0.0006068091     18723.76
        9339     1.001046     1.879444 -0.0006173304     18723.61
        9340     1.000868     1.878786 -0.0006263896     18722.59
        9341     1.000878     1.878153 -0.0005603791     18723.23
        9342     1.001029     1.877539 -0.0005699646     18722.82
        9343     1.001191     1.877202 -0.0005984831     18723.25
        9344      1.00109     1.876506 -0.000558723     18724.78
        9345     1.001024     1.875759 -0.0006940526     18724.99
        9346     1.000865     1.875304 -0.000619281     18725.28
        9347     1.000756     1.874426 -0.0005747848     18727.28
        9348     1.000637     1.874029 -0.0006019087        18728
        9349     1.000726     1.873459 -0.0004871221     18726.99
        9350      1.00085     1.872896 -0.0006081361     18722.99
        9351     1.000492     1.872478 -0.0006475468     18719.16
        9352     1.000397     1.871596 -0.0006295607     18722.35
        9353     1.000057     1.870869 -0.0006989282     18724.75
        9354    0.9997756     1.870378 -0.0006032773     18726.08
        9355    0.9997948     1.869682 -0.0006163782      18727.5
        9356     0.999736     1.869183 -0.0006189913     18731.78
        9357    0.9997437     1.868404 -0.0005971932     18735.82
        9358    0.9995591     1.867902 -0.0006713906     18737.07
        9359    0.9995399     1.867293 -0.0006515313     18736.39
        9360    0.9996462     1.866497 -0.0006375354     18735.22
        9361    0.9996236     1.865798 -0.0006349489     18732.57
        9362    0.9995155     1.865352 -0.0006293589     18729.48
        9363    0.9996259     1.864753 -0.0005872227     18730.59
        9364    0.9998624      1.86398 -0.0005941197     18732.49
        9365     1.000192     1.863449 -0.0005657021     18733.82
        9366     1.000299     1.862976 -0.0005182873     18734.71
        9367     1.000262      1.86249 -0.0005931514     18738.77
        9368    0.9999421     1.861907 -0.0005390942     18742.77
        9369    0.9996271     1.861076 -0.0006422185     18744.27
        9370    0.9994075     1.860819 -0.0006102046     18744.63
        9371    0.9994614     1.859922 -0.0005935097      18746.8
        9372    0.9994764     1.859466 -0.0007014039        18748
        9373    0.9996673     1.858702 -0.0006163877      18748.6
        9374    0.9995629     1.858014 -0.0006024098     18748.49
        9375    0.9995598     1.857456 -0.0005682423     18747.75
        9376    0.9994427     1.857056 -0.0005650925     18746.85
        9377    0.9995706     1.856429 -0.0005623113      18748.2
        9378    0.9998588     1.855753 -0.0006333046     18749.21
        9379     1.000225     1.855207 -0.0006370194      18750.7
        9380     1.000716     1.854523 -0.0006333561      18752.6
        9381     1.001354     1.853881 -0.0006118397     18752.22
        9382     1.001713      1.85322 -0.000562106     18752.99
        9383     1.002083     1.852759 -0.0006045893     18753.79
        9384     1.002623     1.852275 -0.0005991746     18755.71
        9385     1.002969     1.851463 -0.0006368607     18756.97
        9386      1.00312     1.850823 -0.0006412317     18758.36
        9387     1.003025     1.850212 -0.0006135469     18758.71
        9388     1.002752      1.84971 -0.0006060413     18759.43
        9389     1.002522     1.849008 -0.0006377574     18759.38
        9390      1.00261     1.848399 -0.0006209801     18758.58
        9391     1.003011     1.847661 -0.0005850367     18758.09
        9392     1.003032     1.847226 -0.0005709161     18756.24
        9393     1.003032     1.846668 -0.0005692984     18755.43
        9394     1.003268     1.846115 -0.0006352682     18756.25
        9395     1.003184     1.845384 -0.0006242995     18757.04
        9396     1.003339     1.844685 -0.0006065695     18757.62
        9397      1.00319     1.844171 -0.0006937727     18757.95
        9398     1.003086     1.843689 -0.000641626     18760.06
        9399     1.003205     1.842609 -0.0006418456     18761.62
        9400     1.003123     1.842118 -0.0006656122     18760.97
        9401     1.002803     1.841604 -0.0005501386     18760.56
        9402     1.002411     1.841027 -0.0005098675     18760.27
        9403     1.002019     1.840408 -0.000604414     18762.12
        9404     1.001257     1.840079 -0.0005741303     18764.01
        9405     1.000411     1.839186 -0.0006078756     18764.79
        9406     1.000046      1.83873 -0.0006424537     18766.41
        9407     0.999989     1.837977 -0.000611317     18766.66
        9408     1.000136     1.837509 -0.0005954398     18765.66
        9409     1.000184     1.836741 -0.000571899     18765.35
        9410     1.000095     1.836348 -0.000645022     18766.94
        9411     1.000119     1.835689 -0.0005799939     18766.78
        9412     1.000667     1.834929 -0.0006488523     18768.04
        9413     1.000574     1.834421 -0.0006491215     18769.61
        9414     1.000391     1.833753 -0.0006446012     18770.57
        9415     1.000285     1.833093 -0.0006230669     18771.59
        9416      1.00018     1.832351 -0.0006145505     18771.62
        9417     1.000078     1.831929 -0.000599095     18770.72
        9418    0.9998092     1.831295 -0.0005777148     18768.46
        9419    0.9996586     1.830696 -0.0006508146     18768.15
        9420    0.9994841      1.83004 -0.0006669584     18768.84
        9421    0.9995235     1.829325 -0.0006103144     18767.18
        9422    0.9994746     1.828627 -0.0006647237     18766.42
        9423    0.9994026     1.828255 -0.0006279835     18765.34
        9424    0.9992799     1.827381 -0.0005509495      18765.6
        9425    0.9992661     1.826813 -0.0006317806     18765.42
        9426     0.999227     1.826423 -0.0006286383     18765.69
        9427      0.99899     1.825728 -0.0005965944      18766.2
        9428    0.9992234     1.824866 -0.0006542166     18765.73
        9429     0.999263     1.824427 -0.0005986889     18764.86
        9430    0.9991211     1.823806 -0.0006115246     18764.82
        9431    0.9987343     1.823333 -0.000637737     18764.85
        9432    0.9985195      1.82242 -0.0006221142     18765.46
        9433    0.9985012     1.821876 -0.0006758828     18767.07
        9434    0.9983996     1.821318 -0.0005942188     18766.46
        9435    0.9984702     1.820629 -0.0005505357     18766.51
        9436    0.9986216     1.820043 -0.0004900054     18767.04
        9437    0.9986472     1.819674 -0.0005127849     18767.23
        9438    0.9985342     1.819358 -0.0005243204     18766.74
        9439    0.9987574     1.818578 -0.0006237764     18766.33
        9440    0.9988544     1.817946 -0.0007166526     18766.44
        9441    0.9985943     1.817179 -0.0006233267     18766.58
        9442    0.9986348     1.816491 -0.0006206726     18766.73
        9443    0.9985334     1.816085 -0.0006004086     18766.05
        9444    0.9979716     1.815463 -0.0005624534     18764.95
        9445    0.9973031     1.814777 -0.0006212265     18764.22
        9446    0.9971849     1.814241 -0.000629411     18765.85
        9447    0.9968636       1.8136 -0.0005878493     18765.81
        9448    0.9966295     1.812946 -0.0005987435     18766.21
        9449    0.9964623     1.812426 -0.0006004333     18766.07
        9450    0.9963208     1.811846 -0.0005402624     18764.67
        9451    0.9963117     1.811198 -0.0006186555     18764.12
        9452    0.9962926     1.810785 -0.0006193437     18764.57
        9453    0.9963509     1.809951 -0.0005889062     18763.55
        9454    0.9962863     1.809369 -0.0006270151     18763.06
        9455    0.9965227     1.808843 -0.0006012773     18763.42
        9456    0.9969352     1.808277 -0.0005794515     18763.55
        9457    0.9970756     1.807546 -0.0005466538     18761.61
        9458     0.996905     1.807051 -0.0005466313     18761.35
        9459    0.9965621     1.806656 -0.000504962        18760
        9460    0.9965637      1.80609 -0.0005840075     18760.95
        9461    0.9964513     1.805526 -0.0005942152     18761.52
        9462    0.9963748     1.804715 -0.0006546498     18763.26
        9463    0.9963655     1.804279 -0.0006295994     18764.66
        9464    0.9964424     1.803471 -0.000535602     18765.41
        9465    0.9964677     1.803008 -0.0005334487      18765.7
        9466    0.9965569     1.802573 -0.0005169687     18766.41
        9467    0.9965396     1.802145 -0.0005318957     18767.28
        9468    0.9966205     1.801404 -0.0005581403     18767.02
        9469    0.9965704      1.80088 -0.0005991432     18766.56
        9470    0.9963512      1.80034 -0.0005305414     18766.52
        9471    0.9960672     1.799749 -0.0005588681     18765.95
        9472    0.9958203     1.799281 -0.000616312     18764.95
        9473    0.9956142     1.798645 -0.0005298149     18763.05
        9474    0.9957182     1.797875 -0.0005850751     18761.93
        9475    0.9959524      1.79763 -0.0005734769     18760.38
        9476    0.9961829     1.796941 -0.0005208605        18760
        9477      0.99595     1.796351 -0.0006176698     18759.44
        9478    0.9958528     1.795791 -0.000568123     18759.77
        9479    0.9959001     1.795159 -0.0005110476     18759.36
        9480    0.9962003     1.794669 -0.0005225946      18759.4
        9481    0.9963965     1.794307 -0.0005486909     18758.89
        9482    0.9966115     1.793701 -0.0005478548      18757.6
        9483    0.9967599     1.792964 -0.0005983288     18754.25
        9484    0.9970552     1.792477 -0.0005796265     18745.13
        9485    0.9975689     1.791913 -0.0005263325     18724.54
        9486    0.9981937     1.791383 -0.000519328     18717.14
        9487    0.9986915     1.790859 -0.000552746     18724.98
        9488    0.9988928       1.7904 -0.0005707277     18733.72
        9489      0.99861     1.789702 -0.0005495331      18741.8
        9490     0.998254       1.7891 -0.0006049728     18743.32
        9491    0.9980995     1.788661 -0.0005125499     18732.98
        9492    0.9981835      1.78798 -0.0005109585     18715.08
        9493    0.9983305     1.787652 -0.0005253744     18714.47
        9494    0.9985561     1.787056 -0.0005440127     18721.94
        9495    0.9988024     1.786559 -0.0006171044     18732.42
        9496     0.999076     1.785804 -0.0005880992     18741.24
        9497    0.9991113     1.785184 -0.0006061626     18743.29
        9498     0.998786     1.784703 -0.0005667341     18742.23
        9499    0.9981946     1.784135 -0.0005763833     18741.25
        9500    0.9981946     1.784135 -0.0005763833     18741.25
