# This file has been produced by extranormal (v 1.0.1 - February 23, 2017)
# O. Roudenko - Synchrotron SOLEIL. Covered by GPL licence.
#Data from HDF File: /nfs/ruche-rock/rock-soleil/com-rock/2022/Projets/20220725_Gilles/op4_cell4_alone/op4_cell4_pos1_close/op4_cell4_pos1_close_0049/op4_cell4_pos1_close_0049_13174.nxs to op4_cell4_pos1_close_0049_13197.nxs
#Time at start=2022-07-28 07:51:38.675
#Time from start (seconds)=65.0344100474
#Sample temperature (C)=nan
# Normalization -------------
# pivot spectrum: LNO_pristine_av1100_00001.txt
# E0=8332.88   Eshift=0.0384948938853
# E0_pivot = 8349.6
# pre-edge params: from E0_pivot-240.0 to E0_pivot-50.0
# pre-edge range: [8109.6, 8299.6]
# post-edge params: from E0_pivot+70.0 to E0_pivot+1155.0
# post-edge range: [8419.6, 9500.0]
# I jump at E0_pivot = 0.798561686818
# shifted energy	normalized	reference	ref.derivative	I0
        8060 0.0005838211     1.039631 -0.0004838806     14959.03
        8065 0.0005838211     1.039631 -0.0004838806     14959.03
        8070 0.0004137521     1.037357 -0.0004723105     14984.33
        8075 -0.0005797826     1.034993 -0.0004488617      15008.1
        8080   0.00039509     1.032749 -0.0004561094     15029.98
        8085  0.001215395     1.030653 -0.0004431301     15049.07
        8090   0.00197926     1.028235  -0.00044587     15071.93
        8095  0.001296983      1.02613 -0.0004500304     15096.63
        8100 0.0007690285     1.023832 -0.0004314772     15116.52
        8105 0.0004837856     1.021653 -0.0004353052     15140.27
        8110 0.0001242438     1.019606 -0.0004336759     15158.66
        8115 -0.000319032     1.017424 -0.0004290488      15178.2
        8120 0.0004125441     1.015158 -0.0004264305      15198.6
        8125 -0.0005427611     1.013072 -0.0004174679     15219.85
        8130 -1.354412e-05     1.011077 -0.0004048791     15241.01
        8135  0.001854687     1.009075 -0.000415098      15263.4
        8140 0.0006117542     1.007061 -0.0004138061     15282.83
        8145 -0.0004623449      1.00477 -0.0004141339     15304.51
        8150 -0.001488845     1.002801 -0.0004298734     15321.78
        8155 -0.001088546     1.000792 -0.0004227755     15344.57
        8160 0.0005954528    0.9984632 -0.0004233169        15364
        8165  0.001558571    0.9963144 -0.0004341306     15392.98
        8170  0.002872338    0.9943345 -0.0004275001     15409.99
        8175 0.0008392398    0.9921094 -0.000424159     15432.88
        8180 0.0007598296    0.9899132 -0.0004191879     15451.71
        8185 -0.0004935232    0.9878312 -0.0004161101     15472.25
        8190 -0.001174301    0.9859508 -0.0004137774     15494.71
        8195 -0.0004182573    0.9837872 -0.0003964771     15516.38
        8200 -0.0004660046    0.9816377 -0.0004116155     15533.16
        8205 -0.0001603389    0.9799017 -0.0004076963      15557.7
        8210 -0.001261238    0.9777185 -0.0004003512     15573.98
        8215 -0.001481288    0.9756332 -0.0004146457     15594.61
        8220 -0.0008294011    0.9736307 -0.0004101666     15617.67
        8225 -0.000972286    0.9716088 -0.0004039242     15638.32
        8230 -0.0008403978    0.9695151 -0.0004000685     15660.13
        8235 -0.0009865258    0.9675548 -0.0004016788      15677.9
        8240 -0.0008186828    0.9656293 -0.0003824002     15698.81
        8245  0.001193124    0.9635752 -0.0003812815      15720.3
        8250 0.0001339669    0.9618671 -0.0003733172     15738.85
        8255 -0.0005216081    0.9599291 -0.0003637726     15757.22
        8260 -0.001144081     0.958163 -0.0003679967     15777.48
        8265 0.0001649925    0.9562997 -0.0003620955     15798.16
        8270  0.001762922    0.9545072 -0.0003510613     15819.34
        8275 8.486706e-06    0.9526872 -0.000342852     15836.88
        8280 0.0001444784    0.9511417 -0.0003174506     15854.53
        8285 0.0008220322    0.9494427 -0.0002923041     15868.58
        8290 0.0003973019    0.9481582 -0.0002851872     15879.29
        8295  0.001221298    0.9468411 -0.0002673779     15892.38
        8300  0.004063915     0.945438 -0.000266084     15816.89
      8300.2  0.004089743     0.945379 -0.0002614245      15808.8
      8300.4  0.004024155    0.9453785 6.190426e-06     15799.51
      8300.6  0.003963952    0.9453747 0.0001697548     15792.09
      8300.8  0.003960874    0.9454618 0.0001290383     15786.72
        8301   0.00392844    0.9455148 8.549764e-05     15782.68
      8301.2   0.00388306    0.9454818 -0.0002439905     15779.88
      8301.4  0.003820734    0.9454431 -0.0004850243     15777.78
      8301.6  0.003886231    0.9452666 -0.0005800385     15776.61
      8301.8  0.003869597    0.9451268 -0.000752768     15775.71
        8302  0.003961471    0.9450177 -0.0007566445      15775.3
      8302.2  0.004079437    0.9448409 -0.0006472185     15774.78
      8302.4  0.004141992    0.9446613 -0.0005782573     15773.47
      8302.6  0.004206761     0.944609 -0.0004702884     15771.44
      8302.8  0.004331183    0.9445551 -0.000331745      15769.2
        8303  0.004467532    0.9444647 -0.0002122829     15765.97
      8303.2  0.004604358    0.9443959 -0.0001245895     15761.22
      8303.4  0.004610587    0.9444392  3.94905e-05     15754.55
      8303.6   0.00471338    0.9444555 0.0001583707     15747.14
      8303.8  0.004785571    0.9444963 0.0002282507     15736.72
        8304  0.004910903    0.9445226 0.0001686359     15723.33
      8304.2  0.005058235    0.9446218 -3.431497e-05     15706.04
      8304.4  0.005472906    0.9445904 -0.0003065794     15684.15
      8304.6  0.005950136    0.9444688 -0.0007777471     15654.22
      8304.8  0.006471238    0.9442774 -0.000782135     15615.72
        8305  0.007050805    0.9439996 -0.0006758101     15565.96
      8305.2  0.007713177    0.9439647 -0.0004315218     15505.47
      8305.4  0.008358331    0.9439282  -0.00018168     15435.15
      8305.6  0.008800038    0.9439321 -4.698594e-05     15357.91
      8305.8  0.008984995    0.9438543  0.000188623     15283.03
        8306  0.008751733    0.9439271 0.0004095395     15215.97
      8306.2  0.008259793    0.9440791 0.0006292101     15160.45
      8306.4  0.007585518    0.9442598 0.0006090793     15121.59
      8306.6  0.006876777    0.9443576 0.0005784542     15105.14
      8306.8  0.006231268    0.9444143 0.0004495283     15109.16
        8307  0.005649613    0.9445419 0.0004593067     15130.31
      8307.2  0.005113724    0.9446194 0.0005029184     15163.95
      8307.4  0.004770726    0.9447251 0.0006000013     15208.54
      8307.6  0.004383544    0.9448167 0.0006107425     15259.01
      8307.8  0.004040255    0.9450219 0.0006452347     15315.23
        8308  0.003778058     0.945108 0.0006319036     15374.76
      8308.2  0.003494107    0.9452413 0.0002940658     15436.33
      8308.4  0.003272797    0.9453222 0.0001627449     15499.97
      8308.6  0.003294702    0.9452571 -0.000272392     15566.36
      8308.8  0.003457913    0.9452382 -0.0005415292     15629.97
        8309  0.003842856    0.9450234 -0.0007311658     15688.51
      8309.2  0.004218267     0.944889 -0.0008773402     15737.05
      8309.4   0.00479965    0.9446722 -0.0006947403     15772.75
      8309.6  0.005373413    0.9445363 -0.0005815064     15795.52
      8309.8  0.005976425    0.9444676 -0.0003546947     15806.21
        8310  0.006401979    0.9444238 -5.267311e-05     15805.87
      8310.2  0.006567787    0.9443884 6.694345e-05     15799.54
      8310.4  0.006637649    0.9444942 8.513956e-05     15792.13
      8310.6  0.006721772    0.9445211 0.0001075374        15787
      8310.8  0.006626506    0.9444919 -0.0001004964     15784.94
        8311  0.006486906    0.9444744 -0.0004107781     15787.48
      8311.2  0.006383347    0.9444138 -0.0005508944     15794.29
      8311.4  0.006649982    0.9441925 -0.0007251198     15801.19
      8311.6  0.006960707    0.9440512 -0.0005998268      15801.7
      8311.8  0.007116923    0.9438944 -0.000140273     15793.93
        8312  0.007120785    0.9439339 0.0002261172     15780.52
      8312.2  0.007059662    0.9440803 0.0006675301     15766.23
      8312.4  0.006960797    0.9442321 0.0007371744     15752.64
      8312.6  0.006808201    0.9444284 0.0005378277     15740.71
      8312.8  0.006624523    0.9445237 0.0002206208     15732.02
        8313  0.006738968    0.9445105 -0.0002032662     15724.49
      8313.2  0.007181777    0.9444085 -0.0005416882     15713.28
      8313.4  0.007815324    0.9442658 -0.0008462241      15689.2
      8313.6  0.008578487    0.9440903 -0.0008438957     15648.02
      8313.8  0.009381719    0.9438336 -0.0006490815      15590.4
        8314    0.0101458    0.9437334 -0.0003218991     15516.98
      8314.2   0.01048183    0.9437465 0.0002045322     15433.84
      8314.4    0.0105618    0.9438328  0.000701505     15351.46
      8314.6   0.01041111    0.9439972  0.001188467     15276.82
      8314.8  0.009902132    0.9442946   0.00150441     15217.63
        8315  0.009222851    0.9446973  0.001628675     15180.45
      8315.2  0.008442525    0.9450363  0.001451155     15165.17
      8315.4   0.00767843    0.9453001  0.001152567     15171.85
      8315.6  0.007154904    0.9454556 0.0008841589     15196.81
      8315.8  0.006753802    0.9456193  0.000722973     15232.24
        8316  0.006469018    0.9457436 0.0004762762     15273.31
      8316.2  0.006375597    0.9458785 0.0002808805     15316.49
      8316.4  0.006212572    0.9458366 0.0002488717     15359.06
      8316.6  0.006077393     0.945844 0.0003603165     15402.14
      8316.8  0.005888069    0.9459427  0.000618482     15445.85
        8317  0.005762661    0.9461668 0.0007473891     15491.11
      8317.2  0.005730084    0.9463314 0.0006410251     15536.89
      8317.4  0.005715043    0.9464419 0.0002201505      15581.6
      8317.6  0.005811782    0.9464556 -2.619146e-05      15626.9
      8317.8  0.005991885    0.9463429 -0.0001167489     15669.78
        8318  0.006241014    0.9463104 -1.104048e-07     15709.62
      8318.2  0.006561346    0.9463485 0.0003594355     15743.97
      8318.4  0.006881673    0.9464555 0.0004072909      15773.3
      8318.6  0.007161098    0.9466304 0.0005246666     15798.08
      8318.8  0.007554503    0.9466362  0.000568648     15819.84
        8319  0.007779387    0.9467683 0.0004944569     15836.98
      8319.2  0.008069355    0.9469104 0.0005710587     15851.76
      8319.4  0.008252339     0.947026  0.000575273     15863.65
      8319.6  0.008620325    0.9470931  0.000644915     15874.59
      8319.8  0.008883568    0.9472285 0.0006035526     15884.28
        8320  0.009028332    0.9474263 0.0007577758     15893.06
      8320.2  0.009122033    0.9475088 0.0008394549     15900.33
      8320.4  0.009242941    0.9476993 0.0008068867     15906.86
      8320.6  0.009337804    0.9479001 0.0008420546      15912.7
      8320.8  0.009450261    0.9480718 0.0008173996      15918.1
        8321  0.009569195    0.9481825 0.0008614694     15923.25
      8321.2  0.009592334    0.9483532  0.001092726     15927.76
      8321.4  0.009643345    0.9485892  0.001300473     15932.76
      8321.6  0.009669657     0.948946  0.001401811     15938.14
      8321.8  0.009600073    0.9492229  0.001442007     15942.95
        8322  0.009524254    0.9494747  0.001287189     15947.91
      8322.2  0.009510176    0.9497428  0.001333938     15953.43
      8322.4  0.009443348    0.9499758  0.001319943     15958.44
      8322.6  0.009396474      0.95029   0.00139276     15964.43
      8322.8  0.009308127    0.9505306  0.001598884     15971.13
        8323  0.009287634     0.950857  0.001797317     15978.17
      8323.2  0.009339003    0.9512549  0.002053183     15986.03
      8323.4  0.009399287    0.9517279  0.002025773     15994.06
      8323.6  0.009437336    0.9521732  0.001870154     16001.64
      8323.8  0.009553316    0.9524777  0.001734658      16009.5
        8324  0.009715276     0.952751  0.001638497     16016.78
      8324.2   0.00983771    0.9531156   0.00175502     16022.99
      8324.4   0.01004393     0.953484  0.002008205     16027.99
      8324.6   0.01019639    0.9538817  0.002090346     16031.87
      8324.8   0.01034885    0.9543576  0.002216823     16035.41
        8325   0.01056462    0.9547879  0.002375614     16038.52
      8325.2   0.01071216    0.9552574  0.002497835     16040.74
      8325.4   0.01079322    0.9557822  0.002823919     16042.28
      8325.6   0.01092888    0.9563558  0.003150924     16043.98
      8325.8   0.01105437     0.957047  0.003438237     16045.51
        8326   0.01113108    0.9577782   0.00373239     16046.62
      8326.2   0.01126513    0.9585328  0.003876111     16047.66
      8326.4   0.01134887    0.9593417  0.004054425     16048.59
      8326.6   0.01149752    0.9601479  0.004301898     16049.83
      8326.8   0.01168567    0.9610217  0.004606396     16051.17
        8327   0.01190182    0.9619743  0.004969771      16052.7
      8327.2   0.01198499    0.9630269  0.005261935     16053.45
      8327.4   0.01208014    0.9641237  0.005728595     16054.05
      8327.6   0.01225343    0.9652313  0.006054623     16055.09
      8327.8   0.01245399    0.9665572   0.00651873     16056.57
        8328   0.01257677    0.9678706  0.006841505     16057.37
      8328.2   0.01269745    0.9693387  0.007193218     16058.06
      8328.4   0.01297459    0.9707045  0.007753391     16059.27
      8328.6   0.01322641    0.9723117  0.008388245     16060.21
      8328.8   0.01344673    0.9740733  0.009540472     16060.83
        8329   0.01367583    0.9760493   0.01055054     16061.54
      8329.2   0.01399573    0.9783368   0.01185726     16062.88
      8329.4   0.01430593    0.9807522   0.01318196     16064.03
      8329.6   0.01453327    0.9835591   0.01495028     16064.64
      8329.8   0.01489288    0.9865949    0.0171954     16065.69
        8330   0.01522626    0.9902971    0.0196136     16066.78
      8330.2    0.0154981    0.9945085   0.02288557     16067.25
      8330.4   0.01599746    0.9992499   0.02666476     16068.26
      8330.6   0.01649707     1.004903   0.03127765     16069.26
      8330.8   0.01705813     1.011629   0.03804765      16070.1
        8331   0.01770471     1.019531   0.04644991     16070.99
      8331.2   0.01841616     1.029688   0.05644009     16071.71
      8331.4   0.01930284     1.042063   0.06826675     16072.44
      8331.6   0.02021916     1.056781   0.08096647     16072.96
      8331.8   0.02128081     1.074144   0.09418676     16073.05
        8332   0.02255269     1.094461    0.1078562     16073.55
      8332.2   0.02404895     1.117413    0.1203092     16074.05
      8332.4   0.02569667     1.143066    0.1309372     16074.07
      8332.6   0.02771027     1.170391    0.1395352     16074.47
      8332.8   0.02990718     1.199211    0.1453049     16074.56
        8333   0.03229736     1.229041    0.1482212     16074.26
      8333.2   0.03499555      1.25931    0.1483225     16074.42
      8333.4   0.03779096     1.288968    0.1458659     16074.04
      8333.6   0.04053201     1.317869    0.1422906     16073.29
      8333.8   0.04334442     1.345734    0.1383062     16073.21
        8334    0.0461064     1.373142    0.1336671      16072.8
      8334.2   0.04860871     1.399613     0.127171     16072.48
      8334.4   0.05068631     1.424803     0.118955     16071.97
      8334.6   0.05225976      1.44747    0.1100387     16072.41
      8334.8   0.05331311     1.468306     0.101167     16072.46
        8335   0.05391398     1.487644   0.09318716     16072.77
      8335.2   0.05389523     1.505736   0.08545684     16072.39
      8335.4   0.05363447      1.52202   0.07717743     16072.57
      8335.6    0.0531952     1.536672   0.06884574     16073.01
      8335.8   0.05281525     1.549386   0.06162026     16073.39
        8336   0.05254247     1.560813   0.05550417     16074.06
      8336.2    0.0524657     1.571316   0.05095137     16075.19
      8336.4    0.0525586     1.581075   0.04715765     16076.18
      8336.6   0.05275296     1.590147   0.04413753     16076.72
      8336.8    0.0532666     1.598539    0.0418876     16077.71
        8337   0.05395818     1.606626   0.04097676     16078.79
      8337.2   0.05484951     1.614585   0.04139354     16079.75
      8337.4    0.0559944     1.622929   0.04302634     16081.14
      8337.6   0.05730469     1.631654   0.04532024     16082.47
      8337.8   0.05870491     1.641047   0.04821483     16083.46
        8338   0.06037204     1.650841   0.05178511     16084.45
      8338.2   0.06223524     1.661501   0.05500124     16085.87
      8338.4   0.06421011     1.673082   0.05845304     16086.43
      8338.6   0.06645636     1.685048    0.0612088     16088.09
      8338.8   0.06884221     1.697604   0.06316433     16088.98
        8339   0.07147658     1.710468   0.06455829     16090.12
      8339.2   0.07428838     1.723613    0.0647049      16090.5
      8339.4   0.07739394     1.736695   0.06413909     16091.48
      8339.6   0.08068543     1.749368   0.06261823     16092.29
      8339.8   0.08413217     1.761779   0.06105727      16092.7
        8340   0.08798066     1.773708    0.0595989     16093.49
      8340.2   0.09232988     1.785541   0.05837051      16094.4
      8340.4   0.09711497     1.797047   0.05743642     16095.16
      8340.6    0.1024281     1.808475   0.05680496     16095.96
      8340.8    0.1082877     1.819657   0.05679393     16096.77
        8341    0.1147233     1.830985   0.05745858     16097.14
      8341.2    0.1218116     1.842482   0.05971247     16097.39
      8341.4    0.1298873     1.854442   0.06243209      16097.3
      8341.6    0.1391873     1.867427   0.06590906     16097.72
      8341.8    0.1496585      1.88093   0.06972933      16098.3
        8342    0.1611046     1.895209   0.07354261     16098.95
      8342.2    0.1736905     1.910226    0.0784139     16099.53
      8342.4    0.1875854     1.926261    0.0838829     16100.27
      8342.6    0.2030409     1.943662   0.08932405     16100.93
      8342.8    0.2198962     1.962316   0.09445696     16101.89
        8343    0.2375371     1.981685    0.0993445     16102.41
      8343.2    0.2557884     2.001827    0.1035713     16103.03
      8343.4    0.2747852     2.023137    0.1078113     16103.84
      8343.6    0.2942246     2.045173    0.1117484     16104.48
      8343.8    0.3139565     2.067934    0.1147254     16104.83
        8344    0.3336925     2.091225    0.1179536     16105.23
      8344.2    0.3533876     2.114918    0.1210625     16105.22
      8344.4    0.3732035     2.139536    0.1237154     16105.72
      8344.6    0.3931662     2.164784    0.1261838      16105.9
      8344.8    0.4130254     2.190198    0.1278813     16107.04
        8345     0.432719     2.215865    0.1296001     16107.57
      8345.2    0.4525844     2.241841    0.1314501     16108.38
      8345.4    0.4732661     2.268464    0.1332107     16109.08
      8345.6    0.4942757     2.295358    0.1337173     16109.68
      8345.8    0.5158088     2.322433    0.1333264     16110.62
        8346    0.5371354     2.348814    0.1328086     16111.32
      8346.2    0.5590778     2.375125    0.1321022     16111.94
      8346.4    0.5817241     2.401605    0.1313727     16112.85
      8346.6    0.6052772     2.428115    0.1292022     16114.39
      8346.8    0.6293544     2.453913    0.1255492     16115.17
        8347    0.6533272     2.478487     0.120092     16116.14
      8347.2    0.6774226     2.502044     0.114307     16116.99
      8347.4    0.7016668     2.524188    0.1083594     16117.54
      8347.6    0.7267888     2.545358    0.1014788     16118.11
      8347.8    0.7524237     2.565174   0.09346017      16118.4
        8348    0.7781771     2.583227    0.0849104     16118.73
      8348.2    0.8035807     2.598957   0.07556187     16119.32
      8348.4    0.8287472     2.613286   0.06625537     16119.32
      8348.6    0.8537602     2.625624   0.05794122     16119.42
      8348.8     0.879413     2.636231   0.04980968     16119.23
        8349    0.9051319      2.64531   0.04104013     16119.18
      8349.2    0.9310542     2.653134    0.0330212     16119.44
      8349.4    0.9568836     2.658456    0.0253489     16118.87
      8349.6    0.9831468     2.662648     0.018278     16118.74
      8349.8     1.010112     2.665589   0.01313073      16118.6
        8350     1.037666     2.667757  0.008421487     16117.88
      8350.2     1.066101     2.668961  0.004453811     16117.76
      8350.4     1.095421     2.669386 0.0008103618     16118.14
      8350.6     1.125848     2.669152 -0.002543213     16119.02
      8350.8     1.157117     2.668405 -0.006357422     16119.34
        8351     1.188324     2.666926 -0.009014472     16119.78
      8351.2     1.219911       2.6643  -0.01146379     16119.98
      8351.4      1.25156      2.66194   -0.0140003     16120.55
      8351.6      1.28363     2.659234  -0.01498008     16120.89
      8351.8     1.316102     2.655726  -0.01599336     16121.37
        8352     1.348828     2.652316  -0.01629585     16121.79
      8352.2     1.379747     2.649145   -0.0160118     16121.45
      8352.4     1.409867     2.646197  -0.01535351     16121.58
      8352.6     1.438974     2.642916  -0.01416213     16121.59
      8352.8     1.467053     2.640033  -0.01220758     16121.45
        8353     1.493654     2.637816  -0.01005908     16121.73
      8353.2     1.518173     2.636431 -0.006267533     16122.03
      8353.4     1.539021     2.634869 -0.002970171     16121.98
      8353.6     1.556146     2.635019 0.0001051126     16122.06
      8353.8     1.569735      2.63544  0.004743939     16122.45
        8354      1.57896     2.636515  0.008768324     16123.03
      8354.2      1.58278     2.638664   0.01433139     16123.92
      8354.4     1.581233     2.642033   0.01940336     16124.59
      8354.6     1.574733     2.646905   0.02415012     16125.48
      8354.8      1.56318     2.652038   0.02839851     16126.81
        8355     1.546908     2.657984   0.03127163     16127.68
      8355.2     1.526799     2.664752   0.03442367     16128.65
      8355.4     1.503309     2.671922    0.0370012     16129.05
      8355.6     1.476787     2.679577    0.0392974     16129.58
      8355.8     1.448216     2.687585   0.03988782     16130.19
        8356     1.418097      2.69619   0.04054053     16130.97
      8356.2     1.387554     2.703832   0.03964046     16131.95
      8356.4     1.357229     2.712009   0.03796924     16133.02
      8356.6      1.32743     2.719298   0.03633762     16134.19
      8356.8     1.297943     2.726566   0.03321291     16134.62
        8357     1.269424     2.732902   0.02949944     16135.63
      8357.2     1.242723      2.73858   0.02473115     16136.74
      8357.4     1.218144     2.742897   0.02034709     16137.98
      8357.6     1.195849      2.74635   0.01579385     16138.38
      8357.8      1.17513      2.74918   0.01135361     16139.15
        8358     1.156135     2.751215  0.006834143     16140.08
      8358.2     1.139118      2.75198  0.001925972     16141.27
      8358.4     1.124373     2.751818 -0.003604906     16142.19
      8358.6     1.111348     2.750721 -0.007543585     16142.96
      8358.8      1.09991     2.748331  -0.01089189     16143.27
        8359     1.089849     2.745945  -0.01371778     16144.45
      8359.2     1.081044     2.743104  -0.01614962     16145.28
      8359.4      1.07353     2.739747  -0.01897759     16146.51
      8359.6     1.067154     2.735411  -0.02040551     16147.06
      8359.8     1.061888     2.730763  -0.02214734     16147.71
        8360     1.057476      2.72678  -0.02267648     16148.51
      8360.2     1.053474     2.722029  -0.02158176     16148.72
      8360.4     1.050121      2.71727   -0.0221182     16149.29
      8360.6     1.047168     2.713498  -0.02070162     16149.95
      8360.8     1.044493     2.709085  -0.01970121     16150.66
        8361     1.042134     2.705467  -0.01979212     16151.57
      8361.2     1.039991     2.701509  -0.01902338     16152.42
      8361.4     1.037925     2.697664  -0.01828686     16152.94
      8361.6     1.035883     2.693867  -0.01719663     16153.61
      8361.8     1.034047     2.690838  -0.01704697     16154.71
        8362      1.03209     2.687752  -0.01608251     16155.51
      8362.2     1.030038     2.684027  -0.01656873      16156.2
      8362.4     1.028047     2.681001   -0.0174009     16157.26
      8362.6     1.026005     2.677583  -0.01714232     16157.75
      8362.8     1.024088     2.673831  -0.01826926     16159.07
        8363     1.022093     2.670313  -0.01941207     16159.96
      8363.2     1.020057     2.666385   -0.0205097     16160.86
      8363.4     1.018077     2.662053  -0.02148946     16162.47
      8363.6     1.016143     2.657423  -0.02253524     16163.56
      8363.8     1.014331     2.653121  -0.02314354     16164.77
        8364     1.012603     2.648357  -0.02369447     16166.13
      8364.2     1.010963     2.643539  -0.02447026     16166.91
      8364.4     1.009493     2.638468  -0.02496139     16167.74
      8364.6       1.0082     2.633545  -0.02457938     16168.46
      8364.8     1.007351     2.628388  -0.02357958     16169.77
        8365     1.006851     2.623875  -0.02279776     16170.36
      8365.2      1.00668     2.619604  -0.02176286     16171.19
      8365.4      1.00688     2.615307  -0.02071994     16172.67
      8365.6     1.007341     2.610978  -0.01951509     16173.34
      8365.8     1.008223     2.607299  -0.01790959     16174.26
        8366     1.009498     2.603992  -0.01572464     16175.45
      8366.2     1.011038     2.600979  -0.01413642     16176.45
      8366.4      1.01298     2.598398  -0.01255349     16177.65
      8366.6     1.015196      2.59599   -0.0118431      16178.3
      8366.8     1.017779     2.593949  -0.01090402     16179.45
        8367     1.020475     2.591505 -0.009955458     16180.24
      8367.2     1.023429     2.589675 -0.008728884     16181.41
      8367.4      1.02659     2.588026 -0.007454601     16182.78
      8367.6     1.029557     2.586966 -0.006384632      16183.6
      8367.8       1.0325     2.585541 -0.006012375      16184.8
        8368     1.035308     2.584567 -0.006403961     16185.92
      8368.2     1.037995     2.583216 -0.005124809     16186.69
      8368.4     1.040545     2.581843 -0.005118694     16187.84
      8368.6     1.042934     2.581441  -0.00448269     16188.95
      8368.8     1.044899     2.580472  -0.00330999     16190.16
        8369     1.046409     2.579629 -0.004409713     16191.14
      8369.2     1.047482     2.579195 -0.003190686     16192.05
      8369.4      1.04813     2.577913  -0.00174406     16192.98
      8369.6     1.048146     2.577919  -0.00104803     16194.12
      8369.8     1.047658     2.578234 0.0002054598     16195.12
        8370     1.046644     2.578356 0.0006223253     16195.65
      8370.2     1.045227     2.578078  0.001387889     16196.93
      8370.4     1.043295     2.578417  0.001989378     16197.66
      8370.6      1.04096     2.579345   0.00373004     16198.69
      8370.8     1.038141     2.579948  0.004959207     16199.47
        8371     1.035092     2.581062  0.005970568      16199.9
      8371.2     1.031783     2.582385  0.007718838     16200.77
      8371.4      1.02816     2.584121  0.009126815     16201.47
      8371.6     1.024216     2.586123   0.01098183     16202.18
      8371.8     1.020109     2.588363   0.01158334     16203.25
        8372     1.015891      2.59117   0.01244404     16204.34
      8372.2     1.011617     2.593388   0.01319839      16205.2
      8372.4     1.007218     2.596078   0.01426274     16206.13
      8372.6     1.002663     2.598922   0.01561394     16206.34
      8372.8    0.9980117      2.60258   0.01660887     16206.74
        8373    0.9933976     2.605879   0.01799902     16207.42
      8373.2     0.988796     2.609365   0.01873402     16208.21
      8373.4    0.9840441     2.613321   0.01976232     16208.61
      8373.6    0.9792599     2.617567   0.02123561     16209.56
      8373.8    0.9742273     2.621689   0.02169512     16209.89
        8374    0.9692675     2.626354   0.02243231     16210.36
      8374.2    0.9644773     2.630677   0.02323081     16210.91
      8374.4    0.9594896     2.635513   0.02303836     16211.55
      8374.6    0.9543191     2.640273   0.02384481     16212.23
      8374.8    0.9489439     2.644784   0.02431377     16212.48
        8375    0.9437299     2.649753   0.02417794      16212.9
      8375.2     0.938543     2.654964    0.0259789     16213.53
      8375.4    0.9334491     2.659616   0.02686559     16214.58
      8375.6     0.928015     2.665568   0.02744907     16214.75
      8375.8    0.9226346     2.671245   0.02887897     16215.45
        8376    0.9172361     2.676924   0.02861176     16216.59
      8376.2     0.912025     2.682719   0.02886864     16217.23
      8376.4    0.9070075     2.688457   0.02900498     16218.26
      8376.6    0.9021175      2.69434   0.02896784     16219.39
      8376.8    0.8972281     2.700128   0.02942716     16220.91
        8377    0.8924878     2.705893   0.02963058     16221.84
      8377.2    0.8880021     2.711999   0.03029889     16222.71
      8377.4    0.8837295     2.718045   0.03041861     16223.86
      8377.6    0.8795795     2.724367     0.031032     16224.75
      8377.8    0.8756211     2.730228   0.03058133     16225.36
        8378    0.8718227     2.736824   0.02993988     16226.09
      8378.2    0.8681747      2.74251   0.03022304     16226.79
      8378.4    0.8646497     2.748319   0.02908614     16227.32
      8378.6    0.8612403     2.754406   0.02890211     16227.56
      8378.8    0.8581027     2.760093   0.02815673     16228.71
        8379     0.855033     2.765632   0.02737434     16229.32
      8379.2    0.8520224     2.770844   0.02690992     16229.95
      8379.4    0.8490872     2.776306   0.02644603     16230.94
      8379.6    0.8462284     2.781621    0.0266127     16231.19
      8379.8    0.8435753     2.786788   0.02566975     16232.08
        8380    0.8410427     2.792134   0.02438477     16233.12
      8380.2    0.8385928     2.796842   0.02228634     16234.02
      8380.4    0.8362527     2.801129   0.01997396     16234.75
      8380.6    0.8340442     2.804617   0.01873776      16235.5
      8380.8    0.8318898     2.808113    0.0171087     16236.62
        8381    0.8296726     2.811832   0.01563322     16237.23
      8381.2    0.8276104     2.814816   0.01386137     16238.17
      8381.4    0.8257004     2.817124   0.01115715     16238.33
      8381.6    0.8239892     2.819202  0.009573327     16239.27
      8381.8    0.8223925     2.820758  0.007581203     16240.48
        8382    0.8207969     2.822475  0.006297931     16241.15
      8382.2    0.8193407     2.823189  0.004504767     16242.06
      8382.4     0.818007     2.824241  0.002517424     16243.15
      8382.6    0.8167083     2.824361  0.001055768     16244.14
      8382.8    0.8157188     2.824488 -0.001666737     16245.09
        8383    0.8147295     2.824034 -0.003709006     16245.57
      8383.2    0.8138422     2.822907 -0.006001324     16246.54
      8383.4    0.8131743     2.821394 -0.007570323     16247.49
      8383.6    0.8126725     2.819687 -0.008661234     16248.42
      8383.8    0.8122768     2.817977 -0.009801955      16249.1
        8384    0.8119978     2.815978  -0.01075471     16250.15
      8384.2    0.8118076     2.813553  -0.01300131     16250.35
      8384.4    0.8118334     2.811084  -0.01531793      16250.7
      8384.6    0.8120714     2.807576   -0.0171557      16251.9
      8384.8    0.8123091     2.803724   -0.0190329     16252.18
        8385    0.8126741     2.799828  -0.01958924     16252.99
      8385.2    0.8130392     2.795857  -0.02040094     16253.55
      8385.4    0.8135784     2.791905  -0.02140898      16254.1
      8385.6    0.8142513     2.787403  -0.02257237      16254.8
      8385.8    0.8149992     2.782701  -0.02453088      16254.8
        8386     0.815837     2.777799  -0.02573796      16255.4
      8386.2    0.8168228      2.77228  -0.02744077     16256.25
      8386.4    0.8178402     2.766813  -0.02778914     16256.51
      8386.6    0.8188788     2.760748  -0.02838068     16256.95
      8386.8    0.8201212     2.755568  -0.02947735     16257.93
        8387    0.8214223     2.749576  -0.02990905     16258.79
      8387.2    0.8227832     2.743231  -0.03141093     16258.88
      8387.4    0.8244844     2.736821  -0.03156912     16260.26
      8387.6    0.8260127     2.730439  -0.03108081     16260.99
      8387.8    0.8275415      2.72432   -0.0308848     16261.48
        8388     0.829218     2.718366  -0.03103951     16262.48
      8388.2     0.830907     2.712113  -0.03093452     16263.31
      8388.4     0.832646     2.705608  -0.03064425     16263.98
      8388.6    0.8343392     2.699573  -0.03012452     16264.62
      8388.8    0.8360572     2.693851  -0.02907126     16265.88
        8389    0.8377344     2.688014  -0.02846702     16266.61
      8389.2    0.8395847     2.682351  -0.02797032     16267.85
      8389.4    0.8414166     2.676799  -0.02686004     16268.41
      8389.6    0.8432331     2.671475  -0.02579031     16269.04
      8389.8    0.8450421     2.666526  -0.02522088     16270.23
        8390    0.8466728     2.661719  -0.02464964     16269.77
      8390.2    0.8484962     2.656622  -0.02432843     16270.65
      8390.4    0.8502925     2.651755  -0.02421132     16271.04
      8390.6    0.8520988     2.647063  -0.02330211     16271.65
      8390.8    0.8538387     2.642349  -0.02298128     16272.06
        8391    0.8555966     2.637981  -0.02325284     16272.51
      8391.2    0.8574337      2.63337  -0.02296218     16272.89
      8391.4    0.8592723     2.628461  -0.02233884      16273.3
      8391.6    0.8611653      2.62398  -0.02181173      16273.5
      8391.8    0.8630521      2.62011  -0.02054762     16273.72
        8392    0.8651203     2.615921  -0.01958578     16274.65
      8392.2     0.867204     2.612023  -0.01856825     16275.29
      8392.4    0.8694437     2.608311  -0.01808667     16276.28
      8392.6    0.8717289     2.605255  -0.01732819     16276.86
      8392.8    0.8741027     2.601451  -0.01664222     16277.44
        8393    0.8764337      2.59816  -0.01679354     16278.31
      8393.2    0.8789357     2.594997  -0.01537922     16279.48
      8393.4    0.8816054      2.59182   -0.0148404     16280.33
      8393.6    0.8844035     2.589148  -0.01393783     16281.59
      8393.8    0.8871787     2.586288  -0.01251503     16282.45
        8394    0.8899462     2.583847  -0.01179107     16282.74
      8394.2    0.8927929     2.581808  -0.01106324     16283.39
      8394.4    0.8956065     2.579715  -0.01006399      16283.9
      8394.6    0.8987381     2.577437 -0.009209617     16284.92
      8394.8    0.9018284     2.575796 -0.007781102     16285.29
        8395    0.9050845     2.574441 -0.006544663     16285.76
      8395.2    0.9082902      2.57349 -0.005913579      16285.9
      8395.4    0.9115617     2.572201 -0.005950353      16286.7
      8395.6    0.9148199     2.571065 -0.005390704      16287.4
      8395.8     0.918071      2.56968 -0.004403905      16288.4
        8396    0.9213568     2.569178 -0.003058957     16289.49
      8396.2    0.9247442     2.568678 -0.002032077     16290.46
      8396.4    0.9281712     2.568618 -0.001625068     16291.37
      8396.6    0.9317026     2.568055 -0.001296647     16292.31
      8396.8    0.9352368     2.567878 -0.001408598     16293.58
        8397    0.9386765     2.567641 -0.0003342061      16294.1
      8397.2    0.9421486     2.567491 -0.0003482715     16295.09
      8397.4    0.9454953     2.567787 -7.815275e-05     16295.48
      8397.6    0.9489929     2.567599 0.0002737107     16296.14
      8397.8    0.9526615     2.567578 -0.0001305834     16296.48
        8398    0.9561899      2.56771  0.000626361     16297.07
      8398.2    0.9596215     2.567683 0.0001465943     16297.36
      8398.4    0.9628398       2.5681 9.170157e-05      16297.6
      8398.6    0.9661769     2.567696 -0.000725298     16298.04
      8398.8    0.9694491     2.567783 -0.0009409095     16298.35
        8399    0.9726383     2.567103 -0.001157751     16298.55
      8399.2    0.9757264     2.567347 -0.001338289      16299.1
      8399.4    0.9788067     2.566769 -0.0005941168     16299.95
      8399.6    0.9819244     2.566713 -0.001813823     16301.15
      8399.8    0.9850317     2.566627 -0.002217472     16302.08
        8400    0.9878355     2.565896 -0.002972798     16302.59
        8401     1.001111     2.563137  -0.00309594     16305.89
        8402     1.014063     2.559329 -0.002758005     16309.01
        8403     1.027393     2.556796 -0.001840649     16312.37
        8404     1.041287     2.554825 8.661382e-05     16316.01
        8405     1.056237     2.555775  0.002450217     16320.24
        8406     1.070704     2.559675  0.004729073     16324.21
        8407     1.083239     2.566597  0.006414202     16328.32
        8408     1.092703     2.573741  0.007081062      16333.2
        8409     1.098647     2.581432  0.006723009     16338.55
        8410     1.101686     2.587999    0.0062345     16343.04
        8411     1.101698     2.593489  0.006075413     16345.73
        8412     1.099046     2.598679  0.006324193     16348.97
        8413     1.094545     2.605733  0.007423732      16354.3
        8414     1.088711     2.613296  0.008745892     16360.03
        8415     1.081716     2.623184   0.01014508     16363.78
        8416     1.074867     2.633663   0.01110001     16367.84
        8417     1.067867     2.646314   0.01119426     16371.94
        8418     1.061162     2.657696   0.01122188     16377.27
        8419     1.054471     2.667961   0.01043132     16381.28
        8420     1.047312     2.678551   0.01031792     16385.66
        8421     1.039907     2.688039   0.01090293     16388.95
        8422     1.031896     2.698968    0.0116327      16393.1
        8423     1.024152     2.711573   0.01273422     16395.99
        8424     1.016866     2.725081   0.01368731     16397.74
        8425     1.011135     2.738976   0.01421784     16400.27
        8426     1.006047     2.753717   0.01415023     16401.91
        8427     1.001554     2.768444   0.01377614     16405.15
        8428    0.9979576     2.781682   0.01237378     16408.52
        8429     0.994637      2.79408   0.01010898     16411.67
        8430     0.991743     2.803212  0.007386114     16415.36
        8431    0.9891905      2.80888  0.003739316     16420.39
        8432    0.9876153     2.811227 0.0001387079     16424.75
        8433    0.9869456     2.809038 -0.003882092     16428.58
        8434    0.9867345     2.803767 -0.007494559     16431.68
        8435     0.987221     2.793352  -0.01083463      16436.6
        8436    0.9879049     2.781248  -0.01344806     16439.81
        8437    0.9888915     2.765699  -0.01516016     16442.06
        8438     0.989357     2.749975  -0.01642569     16445.01
        8439     0.990293     2.732711  -0.01698163     16451.15
        8440    0.9910077     2.715546  -0.01739022     16456.44
        8441    0.9915109     2.697773  -0.01726365     16460.18
        8442    0.9916543     2.680414  -0.01686774     16464.62
        8443    0.9913159     2.663656  -0.01594947     16468.16
        8444     0.990668     2.648075  -0.01470608     16472.31
        8445    0.9902775     2.633975  -0.01308577     16476.22
        8446    0.9901147      2.62159  -0.01160602     16478.85
        8447    0.9898498     2.611313   -0.0108103     16480.34
        8448    0.9894315     2.601651  -0.01077727     16483.98
        8449    0.9892843     2.590733  -0.01177418     16489.31
        8450    0.9891319      2.57848  -0.01342314     16494.22
        8451    0.9887748     2.564217  -0.01463156     16498.48
        8452    0.9883258     2.547958  -0.01559956     16502.16
        8453    0.9882255     2.532207  -0.01580371     16506.95
        8454    0.9883338     2.516082  -0.01496628     16509.09
        8455    0.9887842     2.501002  -0.01385948     16512.67
        8456    0.9892654     2.488093  -0.01196003      16516.9
        8457    0.9903618     2.476769 -0.009531138     16520.57
        8458    0.9914995     2.468242 -0.006734497     16524.72
        8459    0.9925223     2.462877 -0.003629493     16529.35
        8460    0.9927455     2.461155 -0.0004923624     16531.76
        8461    0.9930778     2.462251  0.002322365     16537.17
        8462    0.9931565     2.466273  0.004872676     16540.97
        8463    0.9927163     2.472167  0.006821028     16543.56
        8464    0.9919149     2.480646  0.008393813     16546.19
        8465    0.9908849     2.489535  0.009687335     16550.51
        8466    0.9893142     2.499848   0.01045096      16555.3
        8467    0.9869291     2.510916   0.01133433     16557.78
        8468    0.9840038      2.52245   0.01163865     16561.34
        8469    0.9802286     2.534873   0.01139404     16565.23
        8470    0.9755434     2.546402   0.01071619     16567.99
        8471    0.9707187     2.556492  0.009355314     16570.53
        8472    0.9657969     2.565314  0.007847664     16573.33
        8473    0.9612947     2.572294  0.005940358      16576.4
        8474    0.9571657     2.577793  0.003768331      16581.3
        8475    0.9532342     2.580254  0.001633608     16585.11
        8476    0.9496163     2.580388 -0.0003038946     16587.66
        8477    0.9468976     2.578828   -0.0017771     16589.02
        8478    0.9454367     2.576578 -0.002457422     16592.42
        8479    0.9452176     2.573145 -0.002467637     16596.31
        8480    0.9460331     2.570558 -0.002032618     16601.28
        8481    0.9481915     2.568958 -0.0003304806      16608.3
        8482    0.9511013     2.568447  0.001731961     16612.67
        8483     0.955046     2.571823  0.004639739     16617.81
        8484    0.9596545     2.577486  0.008235767     16621.75
        8485    0.9644755     2.587517   0.01185904     16623.64
        8486    0.9694217      2.60139   0.01531467     16625.26
        8487    0.9746493     2.619259   0.01790439      16628.3
        8488    0.9801476     2.638744   0.01931126     16632.11
        8489    0.9856394     2.659134   0.01971953     16635.27
        8490     0.990559     2.678635    0.0189766     16639.07
        8491    0.9954054     2.698138   0.01768219     16644.17
        8492    0.9999015     2.714651   0.01573692     16650.14
        8493     1.003751     2.729863   0.01285297     16654.74
        8494     1.007338     2.741583   0.01048706     16656.95
        8495      1.01092     2.749549  0.007765845     16659.28
        8496     1.013758     2.756599   0.00551918     16662.98
        8497     1.016207     2.760927  0.003821513     16666.33
        8498     1.018167      2.76366  0.002009307     16669.32
        8499     1.019786     2.764835  0.000705563     16670.95
        8500     1.021427     2.764636 -0.0009738096     16674.17
        8501     1.022975     2.763749 -0.002628392     16679.37
        8502     1.024856     2.759764  -0.00451657     16684.01
        8503     1.026457     2.754322 -0.006795289     16689.31
        8504     1.027654      2.74657 -0.008772808     16692.62
        8505      1.02929     2.736568  -0.01099744     16696.74
        8506     1.030857     2.724673  -0.01307164      16699.8
        8507     1.032879     2.710332  -0.01491829     16703.44
        8508     1.034567     2.694284  -0.01680651     16706.69
        8509     1.036339     2.676894  -0.01850125     16709.63
        8510     1.038248     2.657447  -0.02020229     16714.64
        8511     1.039762     2.636327  -0.02160378     16718.82
        8512     1.041417     2.613474  -0.02252951     16722.59
        8513       1.0444     2.590479  -0.02338082     16728.14
        8514     1.049102     2.567329  -0.02387725     16730.11
        8515     1.053345     2.542804  -0.02429739     16715.12
        8516     1.054942     2.517965  -0.02421093     16691.76
        8517     1.056688      2.49329  -0.02337407     16688.04
        8518     1.056624     2.470485  -0.02180308     16686.22
        8519     1.056161     2.449308  -0.01979276     16685.93
        8520     1.056107     2.430753  -0.01732483      16686.5
        8521     1.054501     2.414119  -0.01437904     16688.81
        8522     1.051774     2.401186  -0.01134261     16693.81
        8523     1.049267     2.391791 -0.007765442     16698.41
        8524     1.047894     2.385383 -0.004249119     16705.73
        8525     1.046868     2.383057 -0.0007054383     16706.97
        8526     1.043357      2.38419   0.00259217     16709.72
        8527     1.038724      2.38897  0.005695886     16714.04
        8528     1.035224     2.395751  0.008136548      16722.7
        8529     1.031671     2.405841   0.01003468     16729.02
        8530      1.02749     2.416736   0.01168148     16731.04
        8531     1.023235     2.429108   0.01244162     16731.24
        8532      1.02009     2.442477    0.0130653     16735.61
        8533     1.016021     2.455607   0.01308274     16738.17
        8534     1.009642     2.468997   0.01257747     16742.31
        8535      1.00454     2.481439   0.01188562     16747.95
        8536    0.9999873     2.492787   0.01092637     16752.02
        8537    0.9959213      2.50315  0.009980766     16755.44
        8538    0.9933991     2.512702   0.00908592     16753.09
        8539    0.9894306     2.521362  0.007859096     16755.32
        8540     0.984805     2.529131   0.00666221     16764.29
        8541    0.9819584     2.534586  0.005129343     16768.07
        8542    0.9802958     2.539351  0.003479558     16769.79
        8543    0.9778656      2.54188   0.00212992     16775.57
        8544    0.9775139     2.543049 0.0006362567     16782.55
        8545    0.9784848     2.543106 -0.000300315     16785.67
        8546    0.9787592     2.541896 -0.001059835     16787.63
        8547    0.9792188     2.540679 -0.001769934     16792.38
        8548    0.9791902      2.53881  -0.00203149     16795.87
        8549    0.9793287     2.536026 -0.002561381     16800.37
        8550    0.9808632      2.53377   -0.0028247     16804.59
        8551    0.9818426     2.530433 -0.002841309     16810.55
        8552    0.9830077     2.527511 -0.003203479     16811.45
        8553    0.9850991     2.524661 -0.003109344     16814.45
        8554    0.9870319     2.520956 -0.003323007     16819.37
        8555    0.9882765     2.517996 -0.003678858     16822.81
        8556    0.9903283     2.514219 -0.003819277     16826.22
        8557    0.9926651     2.509945 -0.004011189     16830.33
        8558    0.9937476     2.505679 -0.004334907     16836.27
        8559    0.9947401     2.501951 -0.004032167      16838.8
        8560    0.9956914     2.496879 -0.003710046     16838.71
        8561    0.9965824     2.493817 -0.003074953        16841
        8562    0.9976223     2.490839 -0.001836836     16848.07
        8563     0.999378     2.489651 -0.0003481082     16852.15
        8564     1.000138     2.489532  0.001433452     16854.75
        8565     1.000298     2.492424  0.003134824     16859.38
        8566    0.9999587     2.496573  0.005069002     16865.79
        8567    0.9996377      2.50219  0.006595246     16868.24
        8568      1.00047     2.509808  0.008051263     16868.07
        8569     1.000256     2.518805  0.009097619     16873.36
        8570     1.000208     2.528778  0.009658997     16878.56
        8571     1.001731     2.538581  0.009611846     16885.47
        8572     1.002951     2.548444  0.009081076     16893.73
        8573     1.003903     2.557252   0.00850551     16899.41
        8574       1.0056     2.565102  0.007599074     16901.53
        8575     1.006863     2.572603  0.006891821     16903.67
        8576     1.007124      2.57884  0.006112196     16909.06
        8577     1.007217      2.58482  0.004963866        16913
        8578      1.00806     2.589551  0.004118354     16918.75
        8579     1.009347     2.592458  0.002889276     16923.91
        8580     1.010225     2.595314  0.001989937     16926.97
        8581     1.011787     2.596377  0.001278773     16931.96
        8582     1.012609     2.597511  0.000215374     16937.44
        8583     1.012831     2.597573 -0.0005112835     16941.12
        8584     1.013681     2.596175 -0.001659465     16942.47
        8585     1.014736     2.594332 -0.002940198     16943.95
        8586     1.015123     2.590873 -0.004070628     16946.02
        8587     1.015419     2.585813 -0.005422314     16947.35
        8588     1.016696     2.579893 -0.006787109     16947.85
        8589     1.017592     2.572642 -0.007833423     16951.57
        8590     1.018432     2.563724 -0.008922438     16960.15
        8591     1.018576     2.554479  -0.00998827     16964.15
        8592     1.017636     2.544203  -0.01060387     16964.73
        8593     1.017788     2.532689   -0.0110429     16965.79
        8594     1.018296     2.521309  -0.01157159     16969.69
        8595     1.017225     2.510307  -0.01156537     16972.17
        8596     1.016553     2.497917  -0.01148564     16975.77
        8597      1.01587     2.486428  -0.01151746     16977.12
        8598     1.014896     2.475366  -0.01091166     16979.63
        8599     1.013816     2.464238  -0.01056313     16983.81
        8600     1.012097      2.45427 -0.009957719     16989.76
        8601     1.010244     2.444175 -0.009179106     16993.64
        8602       1.0081     2.435536 -0.008252161     16994.47
        8603     1.006053     2.427521 -0.007250827     16997.94
        8604     1.004084     2.421261 -0.006411309     17006.66
        8605     1.002662     2.415172 -0.005282045     17013.47
        8606     1.000539      2.40989 -0.004480939     17016.26
        8607    0.9987007     2.406393 -0.003409522     17020.94
        8608    0.9975373     2.403337 -0.002415611     17025.62
        8609    0.9951632     2.401534 -0.001723688     17026.98
        8610    0.9936761     2.400228 -0.001086493     17030.76
        8611    0.9930777     2.399498 -0.0005428052     17036.08
        8612    0.9933922     2.398992 -0.0002929149      17040.3
        8613    0.9935682     2.399363 -0.0001188564     17042.43
        8614    0.9933989     2.399056 -9.421236e-05     17044.31
        8615    0.9931933     2.399023 -0.0001184507      17049.4
        8616    0.9930983     2.398615 -0.0001119935     17050.73
        8617    0.9933242     2.398889 -0.0001976343     17052.69
        8618    0.9929746     2.398608 -0.0001237484     17054.35
        8619    0.9927111     2.398232 -0.000282868        17056
        8620    0.9932461      2.39812 -0.0002955834     17054.94
        8621    0.9936257     2.397758 -0.0005302739     17050.19
        8622     0.995153     2.397426 -0.0003357656     17035.11
        8623     0.997436     2.396111 -0.0003408136     16936.34
        8624    0.9948816     2.396777 -0.0002804119     16809.13
        8625    0.9960267     2.396394 -2.963496e-05     16822.52
        8626    0.9940812     2.396304 -0.0002200221     16921.51
        8627    0.9956213     2.395993 -0.000250597     17058.31
        8628    0.9968239     2.395897 -6.075822e-06     17089.71
        8629    0.9977709     2.395392 0.0003063933     17098.43
        8630    0.9988138      2.39628  0.000538536     17104.14
        8631    0.9997043     2.397218  0.001037453     17111.29
        8632     1.000653     2.398051  0.001359322     17116.25
        8633     1.000929     2.399542  0.001562046     17117.73
        8634     1.000946     2.401717   0.00180633     17119.84
        8635     1.000705     2.403466  0.001871498     17124.01
        8636     1.000421     2.405276  0.002091814     17130.17
        8637     0.999968     2.407028  0.002214238     17135.23
        8638     1.000358     2.410085  0.002282562     17137.33
        8639     1.000367     2.412323  0.002302004     17139.96
        8640     1.000416     2.414406  0.002049581     17142.25
        8641      1.00073     2.416236  0.001931223     17144.05
        8642     1.001019     2.418283  0.001851626     17145.98
        8643     1.001692     2.420048  0.001616166     17148.34
        8644     1.002538     2.421813  0.001378346     17151.41
        8645     1.002979       2.4227  0.001269744      17153.8
        8646     1.002942     2.423796  0.001134044     17159.36
        8647     1.002783     2.425127  0.001131542     17164.59
        8648     1.003155     2.426349   0.00100363     17169.02
        8649     1.003852     2.427227  0.000889165     17174.36
        8650       1.0042     2.427811  0.000792608     17179.52
        8651     1.004088     2.428684 0.0007272586     17184.05
        8652     1.004857     2.429519  0.000810364     17189.72
        8653     1.005782     2.430136  0.000837044     17192.51
        8654     1.006616     2.431052 0.0007446105     17194.75
        8655     1.006714     2.432032 0.0009167198     17199.18
        8656     1.007293     2.432498  0.000982943     17204.13
        8657     1.008274     2.433802 0.0008684608     17206.86
        8658     1.009222     2.434984  0.001111543     17210.14
        8659     1.010263     2.435506  0.001242944     17213.15
        8660      1.01131     2.436944  0.001222133     17216.04
        8661     1.012081     2.438774  0.001430446     17219.37
        8662     1.012337     2.439873  0.001514911     17222.15
        8663     1.012923     2.441228  0.001503883     17226.77
        8664     1.014022     2.443004  0.001714885     17229.93
        8665     1.014707      2.44479  0.001638526     17230.41
        8666     1.014887     2.446732  0.001408777     17232.09
        8667     1.014886     2.447782  0.001084861     17236.65
        8668     1.014641     2.448639 0.0006730453     17240.13
        8669     1.015506     2.449129 0.0002548914     17244.23
        8670     1.016229     2.449424 -0.0003018403      17248.4
        8671      1.01539     2.448801 -0.0008839079     17252.55
        8672     1.013407     2.447431 -0.001496007     17253.88
        8673     1.012481     2.445594 -0.002077807        17258
        8674      1.01212      2.44344 -0.002482683     17262.11
        8675     1.011673      2.44049 -0.002841442     17263.79
        8676     1.010673     2.437501 -0.003320417     17266.53
        8677     1.009396     2.434228 -0.003498998     17270.33
        8678     1.007604     2.430159  -0.00374574     17274.68
        8679     1.006008     2.426494 -0.004066941     17281.17
        8680     1.004476     2.422518 -0.004193995     17282.69
        8681     1.002514      2.41796 -0.004394429     17287.06
        8682     1.000756     2.413383 -0.004538477     17291.98
        8683    0.9996267     2.408916 -0.004585116     17295.67
        8684    0.9983297     2.404364 -0.004653001      17296.1
        8685    0.9968594      2.39962 -0.004741613      17297.8
        8686    0.9946959     2.394771 -0.004591332     17299.05
        8687    0.9930614      2.38995  -0.00430961     17301.39
        8688    0.9921018     2.385998 -0.003933831     17305.03
        8689     0.991141     2.382381 -0.003467342     17308.31
        8690    0.9905147     2.379035 -0.003098027     17311.89
        8691    0.9901743     2.376081 -0.002775706     17316.24
        8692    0.9899288     2.373606 -0.002325152     17318.66
        8693    0.9890666     2.371278 -0.001906448     17321.62
        8694    0.9887963     2.369735 -0.001433252     17326.23
        8695    0.9885749     2.368455 -0.001017832     17330.22
        8696    0.9879625     2.367873 -0.0008920132     17334.74
        8697    0.9877176     2.367207 -0.0005877094     17333.27
        8698    0.9880383     2.366167 -0.0005801927     17319.23
        8699    0.9878739     2.366104 -0.0004686889     17308.79
        8700    0.9879733     2.365553 -0.0003825449     17315.46
        8701    0.9879292     2.365332 -0.0006604047     17326.18
        8702    0.9886254     2.364636 -0.0008357433     17340.79
        8703    0.9889906     2.363462 -0.001140829     17349.39
        8704    0.9892491      2.36221 -0.001557112     17354.31
        8705      0.98934     2.360769 -0.001881241     17355.51
        8706    0.9893047     2.358408 -0.002290737      17344.4
        8707    0.9892434     2.355937 -0.002715957     17335.61
        8708    0.9896865     2.353047 -0.002992146     17342.53
        8709    0.9899587     2.349905 -0.003349523     17352.03
        8710    0.9900858     2.346439 -0.003630358     17364.36
        8711     0.989732     2.342539 -0.003828793     17372.11
        8712    0.9893587     2.338525 -0.003853055     17378.06
        8713    0.9893368      2.33459 -0.003677709      17382.7
        8714    0.9893642     2.331027 -0.003426943      17386.1
        8715    0.9890643     2.327828  -0.00310042     17390.69
        8716    0.9883336     2.324817 -0.002706756     17394.88
        8717    0.9881182     2.322188 -0.002150899     17398.95
        8718    0.9880021       2.3202 -0.001715512      17402.5
        8719    0.9877306     2.319225 -0.001394571     17408.73
        8720    0.9876016     2.317955 -0.001053589     17412.59
        8721    0.9878269      2.31661 -0.0008832141     17415.86
        8722    0.9879311     2.315986 -0.000720548     17417.66
        8723    0.9877764     2.315692 -0.0006239277        17419
        8724    0.9875868     2.315073 -0.0005313299     17422.66
        8725     0.988171     2.314114 -0.0006815386      17427.7
        8726    0.9881328      2.31386 -0.0005690573     17430.35
        8727    0.9883289     2.312966 -0.0003719127     17436.07
        8728    0.9886159     2.312797 -0.0004617763     17438.99
        8729    0.9891708     2.312627 -0.0002836744     17441.99
        8730    0.9896947     2.312013 -0.0003306092     17442.72
        8731    0.9904812     2.311831 -0.0002578643     17445.39
        8732     0.991847     2.311475 -0.0001594741     17449.55
        8733      0.99315     2.311595 -0.0001154737     17455.77
        8734    0.9937314     2.311375 3.860327e-05     17460.49
        8735    0.9947111     2.311369 9.599659e-05     17464.93
        8736    0.9953542     2.311629 0.0001650044     17466.23
        8737    0.9956931     2.311979 0.0002085321     17468.99
        8738    0.9962749     2.312035 0.0001885408     17473.98
        8739    0.9969191     2.312203 0.0001674882     17479.42
        8740    0.9974761     2.312383 0.0002957693     17481.88
        8741    0.9981645     2.312649  0.000371935      17482.2
        8742    0.9990112     2.313219 0.0003286926     17483.27
        8743    0.9998678     2.313691  0.000390266     17487.13
        8744     1.000418     2.313698 0.0003832693     17489.13
        8745     1.000993      2.31421 0.0003380645     17493.99
        8746     1.001517     2.314752 0.0005876868     17496.61
        8747     1.002007     2.315043  0.000519397     17497.93
        8748     1.002528     2.316049 0.0004726341      17498.9
        8749     1.003541     2.316288 0.0004923771     17501.54
        8750     1.004412     2.316642 0.0004202256     17505.13
        8751     1.004939     2.317013 0.0004747644     17507.65
        8752     1.005464      2.31773 0.0003765733     17509.85
        8753     1.005444     2.318187 0.0005515823     17513.66
        8754     1.006029     2.318148 0.0004703035     17518.91
        8755     1.006961     2.319219  0.000427336     17521.86
        8756     1.007835     2.319611 0.0005074085      17524.8
        8757     1.008403     2.319896 0.0002379033     17527.32
        8758     1.008927     2.320178  0.000191652     17528.02
        8759     1.009174     2.320171 0.0001199971     17531.44
        8760     1.009201     2.320377 0.0001674693     17536.61
        8761     1.008861     2.320376  0.000152411     17541.92
        8762     1.008239     2.320848 0.0002679062     17546.92
        8763     1.007999      2.32078 0.0002946841     17550.54
        8764     1.007792     2.321449 0.0001852301     17552.92
        8765      1.00735     2.321555 0.0002743069     17556.47
        8766     1.006842     2.321589 9.288335e-05     17558.64
        8767     1.006247     2.321878 0.0001391725     17561.13
        8768     1.005793      2.32182 -6.53344e-07     17563.91
        8769     1.005662     2.322112 0.0001638994     17568.25
        8770     1.005092     2.321586 8.739818e-05     17570.48
        8771     1.003788     2.322533 -0.0001917837     17573.69
        8772     1.002666      2.32217 -7.063978e-05     17576.61
        8773     1.001499     2.321344 -0.000360931     17579.82
        8774     1.000431     2.321304 -0.000428453     17583.68
        8775     0.999507     2.321089 -0.0003793333     17586.12
        8776    0.9990546     2.320456 -0.0007067252     17589.47
        8777    0.9982717     2.319827 -0.000908882     17590.83
        8778    0.9979426     2.318477  -0.00114694     17591.57
        8779    0.9973451     2.317454 -0.001367331     17592.67
        8780    0.9969088     2.315869 -0.001449941     17595.21
        8781    0.9970021     2.314358 -0.001494584     17599.68
        8782    0.9975425     2.312677 -0.001672715     17604.45
        8783    0.9976687     2.311476 -0.001915834     17607.58
        8784     0.996912     2.309178 -0.001987192     17609.36
        8785    0.9960082     2.306694 -0.002366397     17611.13
        8786    0.9952215     2.304728 -0.002350005     17613.86
        8787    0.9945847      2.30201 -0.002347315     17616.03
        8788    0.9943975     2.299778 -0.002568406     17617.13
        8789     0.994823     2.297305 -0.002550412     17619.24
        8790    0.9953494     2.294455 -0.002594372     17622.41
        8791     0.995879     2.291808 -0.002654776     17626.58
        8792    0.9959937       2.2894 -0.002386663     17630.23
        8793    0.9963442     2.286686 -0.002353494     17634.27
        8794    0.9964502     2.284908 -0.002369246     17635.78
        8795    0.9967568     2.282394 -0.002150872     17639.17
        8796    0.9969279     2.279923 -0.002130562     17641.78
        8797    0.9967622     2.278083 -0.001957149      17643.1
        8798    0.9970294     2.276386 -0.001747066     17645.81
        8799    0.9968322     2.274566 -0.001605204     17646.07
        8800    0.9962736     2.272935 -0.001491717      17648.4
        8801    0.9961513     2.271662 -0.001287577      17651.9
        8802    0.9959254     2.270419 -0.001126679     17654.34
        8803    0.9960148     2.269415 -0.001014112     17657.16
        8804    0.9959703     2.268428 -0.0009864686      17661.2
        8805    0.9956647     2.267605 -0.0009548028     17664.27
        8806    0.9954003     2.266473 -0.0007545986      17667.3
        8807     0.995073     2.265596 -0.0007633483     17670.29
        8808    0.9948474      2.26541 -0.000568856     17673.83
        8809    0.9947555     2.264552 -0.0004812808     17676.66
        8810    0.9952079     2.264198 -0.0005644835     17679.55
        8811    0.9948554     2.263671 -0.0005117618     17681.83
        8812    0.9945826     2.263152 -0.0005132383     17685.19
        8813     0.994195     2.262505 -0.0004879172     17685.45
        8814    0.9939818     2.262145 -0.000501046      17687.8
        8815    0.9939506     2.261719 -0.0005877369      17692.8
        8816    0.9941319     2.261148 -0.0006928882     17695.93
        8817    0.9944855     2.260154 -0.000689655     17698.86
        8818    0.9950598     2.259373 -0.0008481791     17701.99
        8819    0.9955186     2.258961 -0.0008423624     17703.98
        8820    0.9954102     2.257755 -0.001053961     17704.84
        8821    0.9952567     2.256784 -0.001298408     17707.29
        8822    0.9952625     2.255157 -0.001277885     17707.17
        8823    0.9956785     2.253767 -0.001403755     17706.24
        8824     0.996264     2.252643 -0.001314952     17706.46
        8825    0.9956944     2.251169 -0.001477665     17705.85
        8826    0.9943367     2.249897 -0.001759373     17702.95
        8827    0.9933979     2.247857 -0.001811211     17697.77
        8828    0.9934701     2.245606 -0.001935596     17689.58
        8829    0.9937035     2.243925 -0.002056126     17671.39
        8830    0.9945039     2.242155 -0.001644039      17628.6
        8831    0.9968107     2.239632 -0.001489535     17486.72
        8832    0.9971849      2.23903 -0.001740391     17161.86
        8833    0.9926631     2.237966 -0.001103562      17249.8
        8834    0.9970435     2.235193 -0.001317849     17342.17
        8835    0.9947507     2.235218 -0.001569401     17213.57
        8836    0.9928872     2.233758 -0.001253193     17515.91
        8837    0.9947485     2.231689 -0.001483204     17714.91
        8838    0.9953357     2.230181 -0.001400304     17759.64
        8839    0.9955374     2.229285 -0.001161245     17772.41
        8840    0.9960564     2.228157 -0.001081157     17778.17
        8841    0.9963328     2.227044 -0.001091519     17780.96
        8842    0.9967336     2.225856 -0.001213428     17784.68
        8843    0.9969352     2.224919 -0.001167268     17787.29
        8844    0.9971466     2.223303 -0.001140774     17790.22
        8845    0.9971987     2.222375 -0.001091321     17792.55
        8846    0.9972624     2.221293  -0.00102818     17794.12
        8847    0.9975906     2.220554 -0.001022708     17796.75
        8848    0.9980958     2.219191 -0.001024691     17800.64
        8849    0.9984862     2.218284 -0.001090645     17805.29
        8850    0.9988853     2.217194 -0.0009605852     17808.33
        8851    0.9990319     2.216191 -0.0009886199     17810.64
        8852    0.9995477     2.215348 -0.0008951963     17812.91
        8853      1.00014     2.214329 -0.0008896862     17814.11
        8854     1.000408     2.213613 -0.0009118451     17815.77
        8855     1.000682     2.212632 -0.0008807241     17819.45
        8856     1.000766     2.211701 -0.000840016     17821.81
        8857     1.000608     2.210807 -0.000823664     17823.76
        8858     1.000599     2.210253 -0.000783509     17825.83
        8859     1.000806     2.209338 -0.0005712328     17829.16
        8860     1.000902     2.208567 -0.0005379979     17833.24
        8861     1.000956     2.208522 -0.0004334293     17838.99
        8862      1.00073     2.208101 -0.0002675093     17844.73
        8863     1.001203     2.207604 -0.0003265639     17849.22
        8864     1.001301     2.207497 -0.0003239209     17850.77
        8865     1.000232     2.207215 -4.162844e-05     17851.85
        8866     0.999471     2.206806 -0.0001527899     17854.02
        8867    0.9987657     2.207437 -0.000123499     17855.95
        8868    0.9983887     2.206886 0.0001233374     17857.89
        8869    0.9982836     2.206721 -7.264757e-05     17859.89
        8870    0.9982282     2.207299 7.742912e-05     17862.36
        8871    0.9984819     2.207147  9.23249e-05     17866.06
        8872    0.9983485     2.207195 -1.08866e-05     17870.44
        8873     0.998223     2.207091 7.343799e-05     17874.46
        8874     0.998436     2.207256 0.0002091004     17877.44
        8875    0.9985476     2.207441 0.0002001741     17879.58
        8876    0.9982357     2.208032 0.0002498845     17882.76
        8877    0.9979212     2.207891  0.000282644     17883.91
        8878    0.9979389     2.208255 0.0001866212      17885.3
        8879    0.9978849     2.208571 0.0002944544     17887.92
        8880    0.9976531     2.208778 0.0001790374     17891.68
        8881     0.997594     2.209069  0.000225553     17895.43
        8882     0.997549     2.208971 0.0002455612     17898.42
        8883    0.9973834     2.209473 0.0002396648     17899.19
        8884    0.9973181     2.209761 0.0003032728     17901.34
        8885    0.9972353     2.210028 0.0003379659     17904.21
        8886    0.9970307     2.210184 0.0001973632     17908.16
        8887    0.9967248     2.210825 0.0001861298     17912.22
        8888    0.9966173      2.21055 4.266247e-05     17914.57
        8889     0.996728     2.210772 -0.0001401024      17917.5
        8890    0.9969957     2.210355 -7.642803e-05     17921.04
        8891     0.997119     2.210265 -0.0001466069     17924.34
        8892    0.9971985     2.210244 -0.0001165335     17926.97
        8893     0.997208     2.210186 -0.0002167354     17928.81
        8894      0.99647     2.209889 -0.0003687804     17930.41
        8895    0.9960216     2.209398 -0.000491737     17934.19
        8896    0.9960321     2.208769 -0.0006607413     17938.06
        8897    0.9958046     2.208219 -0.0006915259     17940.39
        8898    0.9951743     2.207246 -0.0008739502     17942.41
        8899    0.9947567     2.206632 -0.001158922     17945.34
        8900    0.9946241     2.205273 -0.001165523     17947.19
        8901    0.9947557     2.203583 -0.001387308     17950.92
        8902    0.9948673     2.202584 -0.001405103     17953.23
        8903    0.9950181     2.201083 -0.001411145     17956.04
        8904    0.9952245     2.199653 -0.001628942      17958.8
        8905    0.9953987     2.197939 -0.001670115     17960.95
        8906    0.9952082     2.196068 -0.001758429     17962.43
        8907    0.9950879     2.194402 -0.001844888     17964.96
        8908    0.9950125     2.192619 -0.001855777     17968.18
        8909    0.9947074     2.190559 -0.001728798     17971.45
        8910    0.9947095     2.188645 -0.001789234     17974.48
        8911    0.9944908     2.187487 -0.001787634     17978.61
        8912    0.9943183     2.185462 -0.001738402     17982.64
        8913     0.994282     2.183409 -0.001751831     17984.62
        8914    0.9943342     2.181691 -0.001606818     17986.55
        8915    0.9943038      2.18048 -0.001450887     17987.96
        8916     0.994666     2.179035 -0.001354801     17990.59
        8917    0.9949222     2.177605 -0.001412176        17992
        8918    0.9950049     2.176272 -0.001342377     17995.25
        8919    0.9949409     2.174831 -0.001239664     17998.01
        8920     0.995272     2.173666 -0.001157189     18001.77
        8921    0.9952948     2.172646  -0.00108442     18004.45
        8922    0.9951928     2.171643 -0.001077246     18006.37
        8923    0.9954043     2.170493 -0.001063318     18009.27
        8924    0.9956776     2.169357 -0.001149575     18011.81
        8925     0.995961     2.168393 -0.001106895     18015.32
        8926    0.9961744     2.167045 -0.001030742     18018.53
        8927    0.9962538     2.166066 -0.0009261436      18021.6
        8928    0.9964848     2.165234 -0.0009809576     18021.54
        8929    0.9969178     2.164689 -0.000909481     18023.41
        8930    0.9973795     2.163121 -0.0009406873     18026.71
        8931    0.9978464     2.162428 -0.000994207     18029.36
        8932    0.9983765     2.161471 -0.0007977658     18033.79
        8933    0.9987917     2.160712 -0.0008346357     18035.27
        8934    0.9990291      2.15993 -0.0008311009      18038.7
        8935    0.9989761     2.159089 -0.000845113     18040.37
        8936    0.9992275     2.158146 -0.0007658776     18037.66
        8937     1.000325     2.157331 -0.0007699347     18011.27
        8938     1.000186     2.156867 -0.0006448784     17953.82
        8939    0.9995569     2.156009 -0.0006512755     17942.31
        8940    0.9987198     2.155567 -0.0007846149     17963.22
        8941    0.9987048     2.154726 -0.0006996064     18023.43
        8942     0.998997     2.153728  -0.00086646     18042.42
        8943    0.9988985     2.153211 -0.0008274068     18049.76
        8944    0.9991213     2.152101 -0.0008768519     18055.83
        8945    0.9994742     2.151417 -0.0009513929      18061.8
        8946    0.9996395     2.150221 -0.0008785981     18066.22
        8947    0.9998321     2.149405 -0.0009043141     18069.37
        8948    0.9999732     2.148587 -0.0008082256     18072.77
        8949     1.000079     2.147799 -0.0008501915     18075.15
        8950    0.9998728     2.146988 -0.0008067935     18076.64
        8951     1.000043     2.146005 -0.0008539087     18078.92
        8952      1.00044      2.14536 -0.0008142728     18080.85
        8953      1.00096     2.144384 -0.0007533307     18083.79
        8954     1.001218     2.143731 -0.0008208108     18087.76
        8955     1.001243     2.142991 -0.0008161655     18091.14
        8956     1.000986     2.142076 -0.0008898721      18091.6
        8957      1.00089     2.141119 -0.0009105219     18092.67
        8958     1.000889     2.140171 -0.0009241286     18094.66
        8959     1.001049     2.139349 -0.0008817907     18096.89
        8960     1.001133      2.13838 -0.000896661     18098.53
        8961     1.001358     2.137592 -0.0009020195      18101.7
        8962     1.001429     2.136585 -0.0009273989     18104.17
        8963     1.001372     2.135741 -0.001010881     18106.14
        8964      1.00148      2.13467 -0.0009444493     18110.32
        8965     1.001343     2.133548  -0.00105238     18114.22
        8966     1.001048     2.132807 -0.0009881586     18117.12
        8967     1.001054     2.131532 -0.000951791     18119.12
        8968     1.001258     2.130718 -0.001124268     18120.56
        8969     1.001576     2.129741 -0.001157147      18122.8
        8970     1.001854      2.12831 -0.001052746     18123.75
        8971     1.002137     2.126903 -0.001043496     18128.41
        8972     1.002119     2.126507 -0.0009228256     18134.03
        8973     1.002206     2.125567 -0.0008284744     18136.85
        8974     1.002397     2.124618 -0.0008605979     18139.72
        8975      1.00226     2.123589 -0.0007843763     18140.42
        8976     1.002137     2.123064 -0.0008364627     18142.44
        8977     1.002341      2.12243 -0.0008217909     18145.32
        8978     1.002286     2.121273 -0.0007861234     18145.68
        8979     1.002246     2.120302 -0.0008196444     18146.58
        8980     1.002332      2.11992 -0.0006902201     18148.66
        8981      1.00224     2.119151 -0.0006736944     18150.08
        8982     1.002119     2.118512 -0.000727255     18150.66
        8983     1.002006     2.117607 -0.0007029641     18151.79
        8984     1.001579     2.117011 -0.0006572239     18153.85
        8985     1.001315     2.116339 -0.0007323458     18156.04
        8986     1.001108     2.115883 -0.000717529     18158.38
        8987     1.001044     2.114678 -0.0005860742     18160.91
        8988     1.000967     2.114141 -0.0006168003     18163.02
        8989      1.00103     2.113995 -0.0005247408     18164.96
        8990     1.001196     2.113416 -0.000474415     18166.69
        8991     1.001507     2.112579 -0.0005656934     18167.37
        8992     1.001495     2.112243 -0.0005524231     18168.81
        8993     1.001364     2.111732 -0.0005002178     18170.98
        8994     1.001273     2.111206 -0.0005611023     18172.28
        8995      1.00143     2.110578 -0.0006075416     18175.25
        8996     1.001675     2.109998 -0.000552165     18178.56
        8997       1.0017     2.109302 -0.0005653409     18181.34
        8998     1.001575     2.108997 -0.0005743924     18183.14
        8999     1.000858     2.108317 -0.0004843702     18184.19
        9000     1.000732     2.107701 -0.0004938145     18186.87
        9001     1.000712     2.107365 -0.0004550192     18188.71
        9002     1.000589     2.107022 -0.0004067423     18191.34
        9003     1.000618     2.106497 -0.0004805982     18195.16
        9004     1.000689     2.106074 -0.0004705992     18198.63
        9005     1.000748     2.105442 -0.0005618484     18201.78
        9006     1.000561      2.10514 -0.0005509076     18203.51
        9007     1.000671     2.104249 -0.0004834186     18206.03
        9008     1.001005      2.10387 -0.0005244116     18208.98
        9009     1.000871     2.103508 -0.0004262404      18210.6
        9010     1.000682     2.103042 -0.0003777584      18212.3
        9011     1.000568     2.102544 -0.0004181635     18213.61
        9012     1.000263     2.102359 -0.0003875171     18215.36
        9013     1.000133     2.101836 -0.0004265937     18217.55
        9014     1.000396     2.101492 -0.0004066482     18219.63
        9015     1.000982     2.100838 -0.0003918119     18222.04
        9016     1.001512     2.100733 -0.000484831     18225.58
        9017     1.001258     2.100269 -0.000409549     18227.22
        9018     1.000435     2.099553 -0.000499014     18228.75
        9019    0.9994835       2.0992 -0.0005208998     18232.29
        9020    0.9986982     2.098737 -0.0004831841     18236.27
        9021    0.9982181     2.098185 -0.0005539382     18238.69
        9022    0.9980264      2.09762 -0.0005973768     18240.63
        9023    0.9979411     2.096984 -0.0006525775      18243.7
        9024    0.9980616     2.096347 -0.0006468213     18246.95
        9025    0.9981676     2.095575 -0.0005537606     18248.17
        9026    0.9981631     2.095033 -0.000592272     18250.18
        9027    0.9981261     2.094769 -0.0005878257     18252.76
        9028    0.9981537     2.093978 -0.0006046371     18256.29
        9029    0.9983151     2.093223 -0.0007166334     18259.38
        9030    0.9984287     2.092614 -0.0007763092     18261.54
        9031    0.9986553     2.091902 -0.0007288631     18263.69
        9032    0.9990108     2.090873 -0.0007920025     18265.21
        9033    0.9990894     2.090308 -0.0008674416      18266.6
        9034    0.9990975     2.089446 -0.0007455061     18268.07
        9035    0.9989021     2.088433 -0.0007982146     18271.15
        9036    0.9986717     2.087891 -0.0006678685     18274.46
        9037    0.9986818     2.087115 -0.0006737999     18277.95
        9038    0.9986263     2.086775 -0.0007238036     18278.99
        9039    0.9987094     2.085737 -0.0006699048     18278.62
        9040    0.9988877     2.084996 -0.0008091986     18279.65
        9041    0.9991418     2.084435 -0.0007541892     18282.51
        9042    0.9994618     2.083538 -0.0007831988      18284.3
        9043     0.999241     2.082721 -0.000808774     18284.97
        9044    0.9990901     2.081863 -0.0008134469     18288.69
        9045    0.9987149       2.0812 -0.0008235249     18291.82
        9046    0.9983033     2.080284 -0.0008806393     18294.83
        9047    0.9980821     2.079426 -0.0008753141     18297.54
        9048    0.9982689      2.07834 -0.0009317027      18300.7
        9049    0.9983789     2.077699 -0.0009038774     18301.65
        9050    0.9984208     2.076557 -0.0008646378     18301.52
        9051    0.9985474     2.075811 -0.001022499     18303.45
        9052    0.9987226     2.074882 -0.0009075573     18306.52
        9053     0.999023     2.073609 -0.0009655464     18309.59
        9054    0.9993227     2.072927 -0.0009355396     18312.81
        9055    0.9992818     2.071949 -0.0008253278     18314.96
        9056    0.9992908      2.07114 -0.0009084621     18317.22
        9057    0.9990591     2.070308 -0.0008618538      18316.8
        9058    0.9990232     2.069293 -0.0008847192     18318.12
        9059    0.9990669     2.068501 -0.0008689632     18319.81
        9060    0.9994482     2.067601 -0.0008301328     18321.71
        9061    0.9997758     2.066832 -0.0008621567     18321.73
        9062    0.9999814     2.065973 -0.0007987739     18322.51
        9063    0.9999595     2.065053 -0.0007994444     18324.75
        9064      1.00002     2.064406 -0.0008545635      18325.8
        9065     1.000105     2.063634 -0.0007394421        18328
        9066     1.000007     2.062554 -0.0007381559     18330.18
        9067    0.9996146     2.062095 -0.0008427985     18331.56
        9068    0.9991648     2.061453 -0.0007375103     18333.17
        9069    0.9990857     2.060263 -0.0008078268     18335.63
        9070    0.9992364     2.059604 -0.0008301317     18339.32
        9071    0.9992294     2.058864 -0.0007462373     18341.85
        9072    0.9992217     2.058132 -0.000816506     18344.18
        9073    0.9994082     2.057278 -0.0008528625     18347.04
        9074    0.9998008     2.056338 -0.0008794972     18349.03
        9075     1.000076     2.055452 -0.0008693445     18351.11
        9076     1.000529     2.054614 -0.0008275143     18353.11
        9077     1.001061     2.053801  -0.00084434     18355.16
        9078     1.001098     2.053028 -0.0007536841     18357.14
        9079     1.001114     2.052075 -0.0008601149     18358.62
        9080     1.001057       2.0516 -0.000823935     18359.55
        9081     1.001243      2.05036 -0.0008081398      18361.1
        9082     1.001141     2.049732 -0.0008914061     18360.21
        9083      1.00115     2.048842 -0.0007261794     18359.34
        9084     1.001358     2.048034 -0.0008310271     18356.39
        9085     1.001625     2.047455 -0.0007461039     18339.28
        9086     1.001698     2.046408 -0.0008194478     18313.05
        9087      1.00157     2.045858 -0.0008042012     18296.82
        9088     1.001509     2.044756 -0.0008372957     18290.47
        9089      1.00151     2.044239 -0.0007193296     18282.98
        9090     1.001971     2.043059 -0.0008697346     18255.48
        9091     1.001993     2.042981 -0.0009111819     18200.69
        9092     1.002584     2.041277 -0.0006242299     18166.25
        9093     1.003527     2.040594 -0.0008238267     18038.84
        9094     1.000852     2.040562 -0.0007006956     18070.69
        9095     1.001307     2.039685 -0.0006377516     18238.19
        9096     1.003302     2.038475 -0.0007133797     18234.65
        9097     1.003278     2.038043 -0.0007361484     18085.79
        9098     1.001887     2.037709 -0.0007263152     18105.79
        9099     1.002124     2.036741 -0.0007951568      18222.8
        9100     1.003169     2.035569 -0.0009309687     18290.36
        9101     1.003525     2.034862 -0.0008897582     18306.59
        9102     1.003802     2.033985 -0.0007759301     18331.31
        9103     1.003537     2.033182 -0.0007509049     18348.94
        9104      1.00312     2.032466 -0.0007863385     18359.22
        9105     1.002805     2.031859 -0.0007765212     18366.98
        9106     1.002282     2.030839 -0.0008088717      18377.3
        9107     1.001676     2.030076 -0.0008699209     18396.12
        9108     1.001341      2.02923 -0.0007980386     18411.75
        9109      1.00117     2.028379 -0.0007876951      18420.6
        9110      1.00119     2.027647 -0.0006839733     18426.91
        9111     1.001101     2.026925 -0.0006820199     18431.16
        9112     1.000895     2.026494 -0.0007732774      18433.1
        9113      1.00078     2.025651 -0.0008221976     18435.38
        9114     1.000814     2.024554 -0.000887515     18438.57
        9115     1.000861     2.023636 -0.0008028442     18442.89
        9116     1.000787     2.022944 -0.0007335663     18447.56
        9117     1.000608      2.02244 -0.0007578619     18450.71
        9118     1.000499      2.02162 -0.0007510292     18453.66
        9119     1.000511     2.020605 -0.0008416204     18454.86
        9120     1.000821      2.01994 -0.0007722169      18456.7
        9121     1.000894     2.019073 -0.0006961989     18457.36
        9122     1.001165     2.018531 -0.0007070244     18457.88
        9123     1.001016      2.01782 -0.0006613795     18458.11
        9124     1.000994     2.017112 -0.0006925625        18460
        9125     1.000995     2.016428 -0.0007838434     18463.73
        9126     1.000769     2.015761 -0.0007613522     18467.12
        9127      1.00059     2.014684 -0.0007330969     18470.08
        9128     1.000299     2.014066 -0.0006848096     18472.24
        9129     1.000298     2.013495 -0.0006331381     18474.39
        9130     1.000449     2.013022 -0.0006395798     18477.01
        9131     1.000664     2.012152 -0.000658876     18477.52
        9132     1.000814     2.011508 -0.0006993452     18478.44
        9133     1.001082      2.01086 -0.000613188     18480.47
        9134     1.001386     2.010224 -0.0005789261     18482.51
        9135     1.001402     2.009699 -0.0005030029     18485.99
        9136     1.001373     2.009192 -0.000506219     18486.97
        9137     1.001283     2.008848 -0.0005216929     18486.31
        9138      1.00176     2.008199 -0.0005398283     18487.29
        9139     1.002609     2.007612 -0.0006283106     18488.12
        9140     1.003318     2.007033 -0.0005513494     18488.92
        9141     1.003131     2.006334 -0.0005395941     18491.84
        9142      1.00296     2.005994 -0.0005298322     18494.68
        9143     1.002792     2.005454 -0.0004735146     18497.35
        9144     1.002516     2.004914 -0.0004894138     18500.11
        9145      1.00221      2.00444 -0.0005224538     18502.29
        9146     1.002275     2.004036 -0.0004639275     18504.33
        9147     1.002408     2.003364 -0.0005345708     18505.68
        9148     1.002501     2.003058 -0.000460339     18507.55
        9149     1.002483     2.002302 -0.000446659     18508.06
        9150     1.002369     2.002195 -0.0005915689     18509.52
        9151     1.002059     2.001577 -0.0005715446     18510.41
        9152     1.001705     2.000692 -0.0006559469        18511
        9153     1.001364     2.000016 -0.000619453     18512.87
        9154     1.001239     1.999571 -0.0005735681     18515.53
        9155      1.00113       1.9991 -0.0005244865     18516.77
        9156     1.001179     1.998398 -0.0005454042     18518.62
        9157     1.001014     1.997918 -0.0005421566     18519.66
        9158     1.000898     1.997389 -0.0005571842     18521.67
        9159     1.001373     1.996931 -0.0005875174     18524.87
        9160     1.001649     1.996169 -0.0006188315     18526.75
        9161     1.001914     1.995568 -0.0006089273     18529.64
        9162     1.002262     1.994914 -0.0005460568     18531.06
        9163     1.002406     1.994495 -0.0005436224     18533.49
        9164     1.002445     1.993985 -0.0005062441     18536.91
        9165     1.001974     1.993393 -0.0006022465     18538.89
        9166     1.001681     1.992889 -0.0007394987     18539.79
        9167     1.001902     1.992086 -0.000688152     18542.35
        9168     1.001894     1.991027 -0.0007766294     18545.09
        9169     1.001774     1.990641 -0.0006999912     18548.45
        9170     1.001982     1.989783 -0.0006726341     18551.32
        9171     1.002293     1.989286 -0.0006953061     18552.87
        9172     1.002349     1.988336 -0.0006588355     18553.24
        9173     1.002113      1.98786 -0.0007461686     18553.01
        9174     1.001921     1.987147 -0.0006806673     18553.37
        9175     1.001906     1.986302 -0.000715132     18554.55
        9176     1.001773     1.985613 -0.0007125962     18555.05
        9177     1.001878     1.984999 -0.0006661842     18556.02
        9178     1.001693     1.984297 -0.000706432     18556.05
        9179     1.001589     1.983637 -0.0007137135     18556.58
        9180     1.001858     1.982788 -0.0006606485     18557.89
        9181     1.001957     1.982144 -0.0006920427     18559.56
        9182     1.001545     1.981654 -0.0006041982     18560.32
        9183      1.00105     1.980869 -0.0006230089     18561.01
        9184     1.000701     1.980371 -0.000588012     18561.16
        9185     1.000682     1.979652 -0.000541377     18562.93
        9186     1.000734     1.979302 -0.000591222     18564.32
        9187     1.000732     1.978703 -0.0005961361     18566.21
        9188     1.000523     1.978006 -0.0006487193     18568.73
        9189     1.000074     1.977268 -0.0007501723     18568.56
        9190     1.000061     1.976707 -0.0007131538        18569
        9191     1.000171     1.975703 -0.0006295105     18570.71
        9192     1.000201     1.975153 -0.0006789036     18573.92
        9193     1.000076      1.97475 -0.0005862514     18576.29
        9194     1.000067     1.973992 -0.000556968     18578.12
        9195     1.000116     1.973358 -0.000630255     18577.65
        9196     1.000141     1.972925 -0.0006257086     18578.43
        9197     1.000293     1.972229 -0.0006212995     18578.89
        9198     1.000432     1.971489 -0.0006641215     18579.59
        9199     1.000556     1.970872 -0.0005932801     18581.12
        9200     1.000634     1.970269 -0.0006443683     18583.76
        9201     1.000501     1.969855 -0.0006710075      18585.3
        9202     1.000688     1.968911 -0.0005964733     18586.58
        9203     1.000601     1.968188 -0.0006467486     18587.02
        9204     1.000996     1.967883 -0.0006296163     18589.05
        9205     1.001127     1.967268 -0.000603692     18589.79
        9206     1.001531     1.966393 -0.0007639222     18592.12
        9207     1.001823     1.965774 -0.0007452774     18592.22
        9208     1.002218     1.964827 -0.0007019278     18593.23
        9209     1.002472     1.964287 -0.0007376495     18596.58
        9210      1.00259     1.963585 -0.0007149969     18599.69
        9211     1.002618     1.962823 -0.0007150228     18602.03
        9212     1.002864     1.961967 -0.0006581005     18604.97
        9213     1.003279     1.961427 -0.000704864     18606.39
        9214     1.003597     1.960953 -0.0006433778      18607.2
        9215     1.003979     1.960004 -0.0006934751     18608.34
        9216     1.003909     1.959394 -0.0007590851     18609.54
        9217     1.004207     1.958653 -0.0006732556     18611.75
        9218     1.004247     1.957917 -0.0007255978     18611.83
        9219     1.003907     1.957311 -0.0007726027     18612.52
        9220     1.003639     1.956492 -0.0007687101      18612.5
        9221     1.003691     1.955563 -0.0008041303     18614.03
        9222     1.003599     1.954842 -0.0008141125     18616.92
        9223     1.003218     1.954094 -0.0007361524     18618.86
        9224      1.00283     1.953235 -0.0007422576     18620.53
        9225     1.002313     1.952618  -0.00076748     18621.06
        9226     1.002163     1.951873 -0.0007530308     18622.98
        9227     1.002171     1.951024 -0.0007985551     18625.93
        9228     1.002053     1.950223 -0.0007523801     18628.69
        9229      1.00196     1.949424 -0.0007168361     18630.21
        9230     1.001655     1.948863 -0.0006918875     18630.95
        9231     1.001501     1.948157 -0.0006717148      18630.9
        9232     1.001414     1.947455 -0.0007022684     18631.96
        9233     1.001603     1.946737 -0.0007143659     18631.44
        9234     1.001996     1.946054 -0.000681681      18631.2
        9235     1.002014     1.945299 -0.0006563005     18631.33
        9236     1.001913     1.944729 -0.0006301893     18633.12
        9237     1.001577     1.944112 -0.000617356     18634.37
        9238     1.001117     1.943533 -0.0007151651     18634.86
        9239     1.000852      1.94283 -0.0007376066     18635.41
        9240     1.000918     1.941868 -0.0007353716     18637.74
        9241     1.000934     1.941162 -0.0007071237     18639.15
        9242     1.000628     1.940592 -0.0006448842     18640.04
        9243     1.000522     1.940001 -0.0007132283     18640.73
        9244       1.0007     1.939288 -0.0007110795     18639.91
        9245     1.000908     1.938309 -0.0007144183     18638.44
        9246     1.001245     1.937748 -0.0006955847     18637.43
        9247      1.00141     1.937144 -0.0007517461     18634.08
        9248     1.001256     1.936506 -0.0007619791      18625.2
        9249     1.001609     1.935302 -0.000654556     18587.25
        9250     1.002289       1.9347 -0.0006460888     18438.95
        9251     1.000235     1.934525 -0.0006336849      18407.6
        9252    0.9998231     1.933922 -0.0007479939      18532.4
        9253       1.0011     1.932767 -0.0006315197     18592.48
        9254     1.002399     1.931708 -0.0006961629     18489.57
        9255     1.001086     1.931999 -0.000628933     18421.91
        9256     1.000829     1.931137 -0.0005932634     18526.15
        9257     1.001055     1.930251 -0.0007757368     18625.38
        9258     1.001294     1.929335 -0.0007303925     18663.06
        9259     1.001028     1.928896 -0.0006890723     18671.35
        9260     1.000752     1.928216 -0.0006225288     18673.66
        9261     1.000842     1.927495  -0.00065858     18676.85
        9262      1.00078     1.926844 -0.0007063567     18678.94
        9263     1.000807     1.926262 -0.0006478947     18681.55
        9264     1.000705      1.92539 -0.0006696931     18682.93
        9265     1.000345     1.924903 -0.000692068     18683.38
        9266     1.000038     1.924166 -0.0006851753     18683.02
        9267    0.9997818     1.923494 -0.0007089219     18682.22
        9268    0.9994663     1.922649 -0.0006615381     18682.93
        9269     0.999165     1.922068 -0.0006215365     18684.95
        9270    0.9990827      1.92152 -0.000592761     18685.68
        9271    0.9993593     1.921008   -0.0006824     18688.18
        9272    0.9996587     1.920278 -0.0007083106     18690.44
        9273    0.9997228     1.919338 -0.0006653843      18691.8
        9274     1.000054     1.918686 -0.0006658102      18693.4
        9275     1.000319     1.918346 -0.0005858306     18693.55
        9276      1.00032     1.917615 -0.0005267832     18693.07
        9277     1.000301     1.916995 -0.0006013958     18694.45
        9278     1.000327     1.916579 -0.0006376709      18696.4
        9279     1.000586     1.915941 -0.0005872109     18698.65
        9280     1.000933     1.915064 -0.0006499021     18699.24
        9281     1.000914     1.914646 -0.0007326028     18700.21
        9282     1.000856      1.91398 -0.0006049756     18701.33
        9283     1.001008      1.91301 -0.0006857922     18701.17
        9284     1.001012     1.912645 -0.0006936869     18702.26
        9285     1.000965     1.911903 -0.000538404     18704.91
        9286     1.000697     1.911205 -0.0006209173     18706.91
        9287      1.00035     1.910857 -0.0005389826     18708.02
        9288    0.9999646     1.910161 -0.0005296251     18709.35
        9289    0.9996506     1.909747 -0.0006543447     18710.73
        9290    0.9993715     1.909086 -0.0006172672      18710.4
        9291    0.9993303     1.908239 -0.0006176954     18711.14
        9292    0.9991873     1.907692 -0.000616518     18712.67
        9293    0.9990471     1.907276 -0.0005766323     18713.15
        9294    0.9994676      1.90662 -0.0005917677     18714.33
        9295    0.9997499     1.905933 -0.0005825124     18716.25
        9296    0.9998404     1.905325 -0.0005515031     18717.48
        9297    0.9995689     1.904946 -0.0005478497     18717.76
        9298    0.9994381     1.904414 -0.0005204578     18718.81
        9299    0.9993336     1.903741 -0.0004858205     18721.22
        9300    0.9993828     1.903243 -0.000532084     18723.48
        9301    0.9993095     1.903003 -0.000502145     18723.94
        9302    0.9991076     1.902286 -0.0004875075     18724.91
        9303    0.9991827     1.901733 -0.0005659553      18725.4
        9304    0.9992313     1.901293 -0.0005251094     18724.62
        9305    0.9993888     1.900739 -0.000570781     18724.28
        9306    0.9994085     1.900185 -0.0006355913     18724.49
        9307    0.9998387      1.89945 -0.0006706185     18726.72
        9308    0.9999969     1.898751 -0.0006149412     18727.36
        9309    0.9998697     1.898056 -0.0006098981     18728.01
        9310     1.000018     1.897726 -0.000581476     18729.74
        9311     1.000253      1.89701 -0.0005968876     18729.57
        9312       1.0006     1.896425 -0.0006087059     18730.47
        9313     1.000985     1.895669 -0.000569464     18731.47
        9314     1.001054     1.895291 -0.0005136677      18732.4
        9315     1.000912     1.894732 -0.0004843566     18733.47
        9316     1.000983      1.89437 -0.0005892687     18735.08
        9317     1.000919     1.893731 -0.0005415552     18737.07
        9318     1.000956     1.892934 -0.0006192174      18740.5
        9319     1.000964     1.892566 -0.0005757265     18741.79
        9320     1.000749     1.891893 -0.000515797     18740.22
        9321     1.000551     1.891428 -0.0006101086     18739.05
        9322     1.000304     1.890871 -0.0005874376     18738.05
        9323     1.000236     1.890125 -0.0006345488     18739.15
        9324     1.000044     1.889543 -0.0006609526     18739.82
        9325     1.000122      1.88889 -0.0005972208     18741.78
        9326     1.000574     1.888227 -0.0005711885     18743.89
        9327     1.000963     1.887737 -0.0006140081     18745.17
        9328     1.001477     1.887259 -0.0006028758     18746.88
        9329     1.001311     1.886434 -0.0006375174     18748.06
        9330     1.001459     1.885815 -0.0006263317     18750.33
        9331     1.001809     1.885186 -0.0005492388     18750.72
        9332     1.002138     1.884753 -0.0006184753     18750.02
        9333     1.002708     1.884237 -0.000554394     18749.09
        9334      1.00307     1.883341 -0.0005239923     18749.94
        9335     1.003217     1.882969 -0.0005934714     18752.61
        9336     1.002971     1.882657 -0.0005480011     18755.75
        9337     1.003186     1.881863 -0.0005781649     18758.41
        9338     1.003355     1.881149 -0.0006912995     18758.57
        9339     1.003633     1.880656 -0.0006625743     18759.29
        9340     1.003572     1.879892 -0.0005734836     18757.36
        9341     1.003589     1.879213 -0.0006011492     18756.79
        9342     1.003648     1.878855 -0.0005428851     18757.84
        9343     1.003553     1.878252 -0.0005944165     18758.61
        9344     1.003553     1.877721 -0.0005978995     18759.31
        9345     1.003424     1.876835 -0.0006173749     18759.38
        9346     1.003073     1.876464 -0.0006362264     18760.77
        9347     1.002636     1.875782 -0.0005760819     18762.26
        9348     1.002347     1.875176 -0.0006278739     18762.63
        9349     1.002133     1.874531 -0.0005787439      18761.5
        9350     1.002002     1.873952 -0.0005866055     18756.99
        9351      1.00184     1.873467 -0.0005513114     18755.09
        9352     1.001798     1.872829 -0.0005942872     18757.95
        9353     1.001543     1.872326 -0.0006881411     18760.22
        9354     1.001519     1.871575 -0.0006511606     18761.96
        9355     1.001425     1.870715 -0.0007166047     18763.23
        9356     1.001537     1.870225 -0.0006519294     18767.66
        9357     1.001582     1.869459 -0.0005715717     18771.79
        9358     1.001657     1.868968 -0.0006390226     18773.42
        9359     1.001652     1.868428 -0.000536142     18773.79
        9360     1.001413     1.867669 -0.0005818578     18771.97
        9361     1.001291     1.867315 -0.0006266589     18769.45
        9362     1.001501      1.86664 -0.0006015537     18766.05
        9363     1.002024     1.865922 -0.0006148954     18767.16
        9364     1.002547     1.865262 -0.0006048623     18768.73
        9365      1.00264     1.864855 -0.0005559127     18769.46
        9366       1.0026     1.864221 -0.0005516456     18770.77
        9367     1.002216     1.863698 -0.0006900189     18774.04
        9368     1.001729     1.863056 -0.0006979302     18779.53
        9369     1.001257     1.862095 -0.0006440245     18780.86
        9370     1.001156     1.861429 -0.0006660444     18781.35
        9371     1.000617     1.861122 -0.0005660136     18783.15
        9372     1.000489     1.860392 -0.0005754383      18785.8
        9373     1.000245     1.859831 -0.0006355187     18785.34
        9374     1.000293     1.859127 -0.0006118337     18785.04
        9375     1.000431      1.85858 -0.0005571693     18784.03
        9376      1.00073     1.857944 -0.0005327997     18783.42
        9377     1.001173     1.857602 -0.0005853985     18784.96
        9378     1.001543     1.856996 -0.0005598054     18787.12
        9379     1.001707     1.856238 -0.0005983595     18788.46
        9380      1.00177     1.855705 -0.0005949164     18789.47
        9381     1.001642     1.855209 -0.0005814222     18789.16
        9382     1.001539     1.854616 -0.0006248332     18789.89
        9383     1.001648     1.853913 -0.0006395872     18790.97
        9384     1.001736     1.853206 -0.0006293002     18791.83
        9385     1.001784     1.852651 -0.0006313386     18793.19
        9386     1.001278     1.852099 -0.0006342715     18793.85
        9387     1.001226     1.851387 -0.0006229984     18795.39
        9388     1.001366     1.850669 -0.0006401597      18796.7
        9389     1.001506     1.850159 -0.000584278     18796.37
        9390     1.001541     1.849538 -0.0005871902     18795.43
        9391     1.001209      1.84905 -0.0006286268     18794.59
        9392     1.000784      1.84832 -0.0005740799     18793.22
        9393     1.000373     1.847644 -0.000594548     18792.71
        9394     1.000271     1.847242 -0.0005801768     18792.81
        9395     1.000505     1.846672 -0.0006139148     18794.79
        9396     1.000225     1.845999 -0.0006507094      18795.4
        9397      1.00024     1.845189 -0.0006505074     18795.03
        9398     1.000334     1.844639 -0.0006485339     18796.83
        9399     1.000183      1.84407 -0.0006553395     18797.83
        9400     1.000124     1.843405 -0.000634248        18798
        9401     1.000095     1.842567 -0.0006148427     18797.45
        9402     1.000007     1.842102 -0.0005978626     18798.48
        9403    0.9996606      1.84161 -0.0005629156     18799.71
        9404     0.999563     1.841014 -0.0006326338     18801.16
        9405    0.9997753     1.840316 -0.0006127572     18801.94
        9406     1.000034     1.839572 -0.0005948649     18803.62
        9407     1.000443     1.839159 -0.0006163525     18805.08
        9408     1.000577     1.838634 -0.0005529081        18803
        9409     1.000473      1.83785 -0.0005913575     18802.62
        9410     1.000496      1.83736 -0.0006514283      18805.5
        9411     1.000254     1.836794 -0.0005745515     18805.35
        9412    0.9999801     1.836028 -0.0006295487     18805.38
        9413    0.9998614     1.835552 -0.0006338294     18807.27
        9414    0.9996161     1.834842 -0.0006156942     18808.21
        9415    0.9994062     1.834259 -0.0006677228     18810.05
        9416    0.9991036     1.833566 -0.000599948     18809.81
        9417    0.9988748     1.832881 -0.0006716354     18808.82
        9418    0.9991579     1.832442 -0.0006577383     18806.72
        9419    0.9996173     1.831572 -0.0006269241     18807.43
        9420    0.9996989     1.830935 -0.0006366017     18806.88
        9421    0.9996966     1.830373 -0.0005572157     18804.43
        9422    0.9997357     1.829896 -0.0005761418     18803.23
        9423     1.000156     1.829343 -0.0005198684     18804.47
        9424    0.9999033      1.82863 -0.0005858661     18804.07
        9425    0.9996227     1.828294 -0.0005898524     18803.99
        9426    0.9997999     1.827552 -0.0005381134     18804.34
        9427    0.9996355     1.826984 -0.0006398609     18804.32
        9428    0.9992742     1.826478 -0.0006402628     18803.37
        9429    0.9989968     1.825734 -0.000604008     18802.45
        9430    0.9986542     1.824991 -0.0006676276      18804.1
        9431     0.998247     1.824568 -0.0006875853     18804.13
        9432     0.998068     1.823807 -0.0006730329     18804.76
        9433    0.9983759     1.822984 -0.0006606777     18806.34
        9434    0.9987436     1.822299 -0.0006196104     18806.55
        9435    0.9990154     1.821925 -0.0005283727     18805.32
        9436    0.9992622     1.821329 -0.0005423613     18806.21
        9437    0.9992211     1.820871 -0.0005881307     18806.31
        9438     0.999146      1.82013 -0.0005652508     18806.88
        9439    0.9992061     1.819573 -0.0006238133     18805.35
        9440    0.9990529     1.819068 -0.0005813192     18805.27
        9441    0.9989824     1.818375 -0.000627266     18805.53
        9442    0.9990539     1.817804 -0.0006430184     18805.18
        9443    0.9988834     1.817064 -0.0006220468      18804.6
        9444    0.9985764     1.816496 -0.000667979     18804.05
        9445    0.9984798     1.815887 -0.0005912014     18803.87
        9446    0.9981965     1.815132 -0.0005821176     18804.41
        9447    0.9981843     1.814699 -0.0006310369     18805.83
        9448    0.9981212     1.814167 -0.0005331551     18806.11
        9449    0.9981252     1.813363 -0.000587069     18806.12
        9450    0.9980296        1.813 -0.0005699699     18803.63
        9451    0.9978355      1.81235 -0.0005327995     18804.09
        9452     0.997775     1.811887 -0.0005751607     18803.54
        9453    0.9980739     1.811232 -0.0006176011     18802.44
        9454    0.9984581     1.810699 -0.0006665625     18802.95
        9455    0.9989047      1.80988 -0.000610671     18802.63
        9456    0.9996057     1.809221 -0.0006276068     18802.71
        9457      1.00001     1.808789 -0.0005836435     18801.44
        9458      1.00029     1.808189 -0.0005044489      18800.6
        9459     1.000264     1.807546  -0.00057803     18799.67
        9460     1.000332     1.807203 -0.0005862633     18802.07
        9461      1.00032     1.806477 -0.0005592738     18802.18
        9462     1.000226     1.805844 -0.000557435     18803.96
        9463    0.9995459     1.805308 -0.0005440689     18805.37
        9464    0.9988784     1.804973 -0.0004929983     18805.45
        9465    0.9982725     1.804301 -0.0004856603     18805.79
        9466    0.9977789     1.803872 -0.0005404071     18807.83
        9467    0.9971503     1.803366 -0.0005933173        18808
        9468    0.9967758     1.802812 -0.0006348918     18807.05
        9469    0.9965452     1.801927 -0.0006214178     18806.75
        9470    0.9965351     1.801332 -0.0006900001     18807.18
        9471     0.996539      1.80088 -0.0005683392     18806.27
        9472    0.9966001     1.800052 -0.0005618335     18805.26
        9473    0.9966174     1.799654 -0.0005674069     18804.31
        9474    0.9966081     1.799085 -0.0004533913     18803.93
        9475    0.9965298      1.79861 -0.0004946452     18802.08
        9476    0.9965941     1.798238 -0.0005111189     18801.38
        9477    0.9967067     1.797676 -0.0005161375     18800.67
        9478     0.997081      1.79704 -0.0005603471      18801.2
        9479    0.9973403     1.796546 -0.0004762692     18800.51
        9480    0.9972665     1.795997 -0.0005332559     18800.78
        9481    0.9965215      1.79577 -0.0005679912     18800.88
        9482     0.995962     1.794907 -0.0005536004     18798.95
        9483    0.9959875     1.794274 -0.0006001463     18796.06
        9484    0.9959586     1.793782 -0.0005696972     18784.33
        9485    0.9959621      1.79337 -0.0005665756     18763.88
        9486    0.9959875     1.792629 -0.0005875811     18758.69
        9487    0.9962025     1.792008 -0.0006639248     18766.03
        9488    0.9963901     1.791432 -0.0005914069     18776.35
        9489    0.9961004     1.790714 -0.0005692341     18784.33
        9490    0.9957769     1.790263 -0.0006348739     18786.01
        9491    0.9959297     1.789731 -0.0005456631      18775.1
        9492     0.996048     1.788893 -0.0005397735     18756.89
        9493    0.9958963     1.788531 -0.000647001     18757.57
        9494    0.9958848     1.788104 -0.0004662919     18764.27
        9495    0.9959098     1.787143 -0.0005101597     18777.04
        9496    0.9957003     1.787027 -0.0005520164     18784.48
        9497    0.9955517     1.786491 -0.0004618319     18785.32
        9498    0.9952883     1.785896 -0.0006359254        18784
        9499    0.9951962     1.785295 -0.0007077109     18784.37
        9500    0.9953326     1.784484 -0.0008158829     18782.91
