# This file has been produced by extranormal (v 1.0.1 - February 23, 2017)
# O. Roudenko - Synchrotron SOLEIL. Covered by GPL licence.
#Data from HDF File: /nfs/ruche-rock/rock-soleil/com-rock/2022/Projets/20220725_Gilles/op4_cell4_alone/op4_cell4_pos2_dq1/op4_cell4_pos2_dq1_0052/op4_cell4_pos2_dq1_0052_13356.nxs to op4_cell4_pos2_dq1_0052_13379.nxs
#Time at start=2022-07-28 08:43:24.298
#Time from start (seconds)=64.8059832827
#Sample temperature (C)=nan
# Normalization -------------
# pivot spectrum: LNO_pristine_av1100_00001.txt
# E0=8332.88   Eshift=-0.200000206002
# E0_pivot = 8349.6
# pre-edge params: from E0_pivot-240.0 to E0_pivot-50.0
# pre-edge range: [8109.6, 8299.6]
# post-edge params: from E0_pivot+70.0 to E0_pivot+1155.0
# post-edge range: [8419.6, 9500.0]
# I jump at E0_pivot = 0.725437874498
# shifted energy	normalized	reference	ref.derivative	I0
        8060  0.003282476      1.04228 -0.0004546045     14939.09
        8065  0.001690365     1.040003 -0.000475959      14959.6
        8070  0.002152349     1.037516 -0.0004603077     14984.31
        8075  0.001994811     1.035299 -0.0004538117     15007.05
        8080  0.003327401     1.033074 -0.0004384569     15029.12
        8085  0.003855181     1.030926 -0.0004549455     15048.78
        8090  0.003556337     1.028747 -0.0004427154     15070.83
        8095  0.003138502       1.0262 -0.0004521879     15094.73
        8100  0.002799087      1.02422 -0.000451831     15117.12
        8105  0.002578363     1.021883 -0.0004256538     15140.39
        8110  0.001298316      1.01971 -0.0004359607        15159
        8115  0.001160115     1.017687 -0.0004230276     15177.95
        8120 0.0008041166     1.015501 -0.0004147983     15198.32
        8125 -0.0009113026     1.013422 -0.0004183782     15219.82
        8130 -0.0001292075     1.011415 -0.0004200828     15242.12
        8135 0.0003542675     1.009319 -0.0004080647     15263.05
        8140 -0.0004678607     1.007099 -0.0004199063      15281.7
        8145 1.928654e-05     1.005261 -0.0004214938     15303.96
        8150 0.0001192343     1.003016 -0.0004151972     15322.68
        8155  4.57987e-05      1.00089 -0.0004247555     15344.93
        8160 8.536027e-05    0.9987949 -0.0004211885     15364.21
        8165 -0.0001638731    0.9967656 -0.0004249778     15392.44
        8170 -0.000470525    0.9945926 -0.0004211844     15408.99
        8175 0.0005489853    0.9923901 -0.0004213092     15432.59
        8180 0.0002365543    0.9903712 -0.0004154747     15452.15
        8185 0.0005930202    0.9883394 -0.0004103604     15471.93
        8190 0.0003390652    0.9862831 -0.0004167752     15494.91
        8195 -0.0008371162    0.9841829 -0.0004166202     15516.11
        8200 -0.001043878    0.9820357 -0.0004211694     15533.11
        8205 -0.0006358356     0.980007 -0.0004144988     15557.79
        8210 -0.001140575    0.9778597 -0.000414828     15573.31
        8215 -0.001426867    0.9758929 -0.0004135389     15595.23
        8220 -0.001122525    0.9737392 -0.0004041173     15617.41
        8225 -0.0008055584    0.9717363 -0.0004084074     15639.65
        8230 -0.0002832611    0.9697774 -0.000399732     15660.61
        8235 -0.0002614642    0.9677247 -0.0003928381     15678.05
        8240 -0.0006074822    0.9657445 -0.0003851944     15699.19
        8245 -4.404219e-05    0.9638795 -0.0003849201     15721.23
        8250  0.001434682    0.9620735 -0.0003725127     15739.27
        8255   0.00123102    0.9600263  -0.00036283     15757.65
        8260 -0.0002272458    0.9582943 -0.0003590854     15777.39
        8265 -0.0006917362    0.9566229 -0.0003476788     15797.75
        8270 -0.0006020223    0.9548918 -0.0003441451     15820.05
        8275 0.0006749916    0.9530728 -0.0003438808     15836.64
        8280 0.0009688988    0.9514114 -0.0003375894     15854.53
        8285 0.0001936588    0.9497453 -0.0003120527        15867
        8290 0.0004010903      0.94814 -0.0002860234     15879.97
        8295  0.001414047    0.9468317 -0.0002733898     15890.58
        8300  0.002668512    0.9456306 -0.0001888945     15820.89
      8300.2  0.002692959    0.9457408 -3.339996e-05     15810.22
      8300.4   0.00264931     0.945819 9.962398e-06     15800.67
      8300.6  0.002661241    0.9457217 -8.898762e-05     15793.06
      8300.8   0.00273155    0.9456386 -0.0002040623     15787.23
        8301  0.002734658    0.9456696 2.413736e-05     15782.94
      8301.2  0.002866544    0.9456558 -0.0001104252     15780.67
      8301.4  0.002907905     0.945741 -0.0003311379     15778.64
      8301.6  0.002942843    0.9455502 -0.0006781002     15776.88
      8301.8   0.00302644    0.9454047 -0.0008543124     15776.39
        8302  0.003252269    0.9451133 -0.0007589999     15776.38
      8302.2  0.003300013    0.9450575 -0.0006917622     15775.82
      8302.4  0.003311282     0.944943 -0.000415075     15774.37
      8302.6  0.003396175    0.9448513 -0.0003770998     15772.61
      8302.8  0.003471516    0.9447812 -0.0002228125     15770.25
        8303  0.003527517    0.9447559 -0.0002497749     15766.22
      8303.2  0.003633515    0.9447648 -0.0001706624     15761.79
      8303.4  0.003934278    0.9446514 -0.0001065375     15756.73
      8303.6  0.004019033    0.9446447 -0.0001466122     15748.41
      8303.8   0.00411541    0.9446706   0.00015475     15738.54
        8304  0.004239976    0.9446475 0.0001608624     15725.65
      8304.2  0.004551863    0.9447752 3.734979e-05     15709.88
      8304.4  0.004860553    0.9447734 -0.0001653504     15688.17
      8304.6       0.0054    0.9447005 -0.0005196251     15660.24
      8304.8  0.006080602    0.9445152 -0.0006609999      15623.8
        8305  0.006787561    0.9443595 -0.0005956749     15576.15
      8305.2  0.007466427    0.9442446 -0.0005063498     15517.25
      8305.4  0.007982867     0.944224 -0.0002942748     15448.32
      8305.6  0.008338975    0.9441102 -8.739976e-05     15370.21
      8305.8  0.008518915    0.9441241 0.0001452003     15294.15
        8306   0.00831481    0.9441747 0.0004418251        15223
      8306.2  0.007786473    0.9443401 0.0005412625     15165.39
      8306.4  0.006943017    0.9444636 0.0005050249     15124.88
      8306.6  0.006004805    0.9445571 0.0003986625     15104.08
      8306.8   0.00523041    0.9445787 0.0003920626     15104.08
        8307   0.00455007    0.9446591 0.0005147126     15124.41
      8307.2  0.004124416    0.9447773 0.0006042376     15158.03
      8307.4  0.003770306    0.9449689 0.0007206126     15200.98
      8307.6  0.003487311    0.9450621 0.0007816374      15251.5
      8307.8  0.003037631    0.9452355 0.0006552374     15307.24
        8308  0.002725702    0.9454026 0.0006059874     15366.27
      8308.2  0.002190846    0.9454931 0.0004793498     15426.55
      8308.4  0.002069271    0.9455469 0.0002805996     15491.24
      8308.6  0.001952149     0.945619 -0.000117338     15557.19
      8308.8  0.001987528     0.945627 -0.0005760878     15622.27
        8309  0.002115154    0.9453992 -0.0008447627     15681.53
      8309.2  0.002458223     0.945086 -0.001008612     15730.76
      8309.4  0.002892078    0.9449432 -0.0008841622     15769.07
      8309.6  0.003496603    0.9448202 -0.0006242498     15795.41
      8309.8  0.004058243    0.9446919 -0.0004233874     15806.77
        8310  0.004433181    0.9445866 -0.0003734998     15807.57
      8310.2  0.004580216    0.9446045 -0.0001409624     15801.79
      8310.4  0.004507178    0.9445214 -4.003753e-05     15793.64
      8310.6  0.004320539    0.9445791 -6.81249e-05     15787.42
      8310.8  0.004182753    0.9445546 2.478724e-05     15784.87
        8311  0.003922875      0.94455 -0.000230125     15786.59
      8311.2  0.003583473    0.9445412 -0.000264125     15792.98
      8311.4  0.003633547     0.944395  -0.00026145      15800.5
      8311.6  0.003942098    0.9443433 -0.0002894123     15803.48
      8311.8  0.004146795    0.9443408 -8.012489e-05      15796.3
        8312  0.004181912    0.9443097  2.61503e-05     15783.17
      8312.2  0.004253461    0.9443309 0.0003160002     15768.92
      8312.4  0.004292231    0.9443642 0.0005153375     15755.03
      8312.6  0.004083784    0.9445936 0.0005441248     15742.39
      8312.8  0.004034056    0.9447219 0.0003195869     15733.34
        8313  0.004121569    0.9447662 -0.0002327004     15726.56
      8313.2  0.004690184    0.9446199 -0.0006322628     15716.88
      8313.4  0.005419792    0.9444075 -0.0008948375      15694.6
      8313.6   0.00625331    0.9442161 -0.0008591373     15658.03
      8313.8  0.007511852    0.9440504 -0.0006897496     15603.88
        8314  0.008243721    0.9439326 -0.0003485872     15530.92
      8314.2  0.008877896    0.9438557  -4.4762e-05     15448.65
      8314.4  0.009048627    0.9439373 0.0004382505      15365.3
      8314.6  0.008858141    0.9440146  0.000935913     15287.85
      8314.8  0.008409122    0.9442832   0.00137965      15225.9
        8315  0.007738169    0.9446044  0.001620387     15182.44
      8315.2  0.006897539     0.945041  0.001548787     15163.55
      8315.4  0.006138652    0.9453109  0.001388362     15168.31
      8315.6  0.005599482    0.9455222 0.0009827248     15189.74
      8315.8  0.005247922    0.9457151 0.0007779124     15224.21
        8316  0.005254711    0.9458272 0.0006780249     15265.67
      8316.2  0.005211571    0.9459332 0.0005803126     15308.27
      8316.4  0.005086881    0.9460646 0.0007244624     15351.01
      8316.6  0.004925399    0.9461794 0.0006552376     15393.58
      8316.8  0.004764427    0.9464067    0.0007216     15437.95
        8317  0.004574342    0.9464574 0.0007122748     15483.07
      8317.2  0.004347948    0.9466419 0.0005380249     15528.83
      8317.4  0.004248966    0.9467492 0.0004630495     15573.93
      8317.6  0.004195157    0.9468371 2.608731e-05     15618.62
      8317.8   0.00412777    0.9468278 -0.0001561751        15662
        8318  0.004381927    0.9466628 -0.0002201998     15703.96
      8318.2   0.00450659    0.9466242 -3.624967e-05     15739.05
      8318.4  0.004690361     0.946661 0.0002873626     15769.49
      8318.6  0.004755887    0.9467988 0.0003678249     15794.18
      8318.8  0.004852649    0.9468927 0.0003144249     15815.86
        8319  0.005140427    0.9469185 0.0002542876     15834.64
      8319.2  0.005238926    0.9469125 0.0003139879     15849.88
      8319.4  0.005280411    0.9470023 0.0006576127     15862.04
      8319.6   0.00534176    0.9471438 0.0008237501     15872.71
      8319.8  0.005321338    0.9474446  0.000900575     15881.81
        8320  0.005518964    0.9475715 0.0008878248     15890.97
      8320.2  0.005611742    0.9477227 0.0007165249     15898.76
      8320.4  0.005743394    0.9478541 0.0006327001     15905.99
      8320.6  0.005871985    0.9480178 0.0007253126     15911.92
      8320.8  0.006023169    0.9480777 0.0008195626     15917.57
        8321  0.006164842     0.948303 0.0009604377     15922.68
      8321.2  0.006346505    0.9485098  0.001135388     15927.88
      8321.4  0.006477315    0.9487862  0.001152612     15933.13
      8321.6  0.006502342     0.948986  0.001144412     15937.25
      8321.8  0.006666112    0.9492251   0.00114315     15942.37
        8322  0.006768126    0.9494253  0.001235775     15947.52
      8322.2   0.00687411    0.9497007  0.001306338     15952.68
      8322.4  0.006989923    0.9499746  0.001412575      15958.2
      8322.6  0.007046034    0.9502701  0.001472725     15964.02
      8322.8  0.007192132    0.9505553  0.001529812     15971.24
        8323  0.007200037    0.9508789  0.001435913     15978.39
      8323.2  0.007211017    0.9511985  0.001646813     15985.72
      8323.4  0.007325947    0.9514189  0.001794213      15993.7
      8323.6  0.007374656    0.9518728  0.001830975     16001.57
      8323.8  0.007361732    0.9523142  0.001872225      16009.1
        8324  0.007434757    0.9526632  0.001708987     16016.39
      8324.2  0.007548654    0.9529166  0.001619725     16022.46
      8324.4  0.007750718      0.95324  0.001691938     16027.93
      8324.6  0.007812935      0.95361  0.002015738     16032.17
      8324.8  0.007881604    0.9540168    0.0022455     16035.25
        8325  0.008111403    0.9545292  0.002484825     16038.69
      8325.2  0.008292239    0.9550364  0.002733863     16040.81
      8325.4  0.008394887    0.9555979  0.002739275        16043
      8325.6  0.008417294    0.9562039  0.002738913     16044.11
      8325.8  0.008615071    0.9567206     0.003009     16045.55
        8326  0.008743856    0.9572275   0.00322025     16046.48
      8326.2  0.008880525    0.9580051  0.003476638     16047.91
      8326.4  0.009079074    0.9587801    0.0039123      16049.5
      8326.6  0.009287176     0.959502  0.004106363     16050.91
      8326.8  0.009557833    0.9603574  0.004402825     16052.15
        8327  0.009763743    0.9612902   0.00474705     16053.05
      8327.2  0.009953208    0.9623023   0.00516555     16053.79
      8327.4   0.01020554    0.9632996    0.0054535     16055.01
      8327.6   0.01035935    0.9644898    0.0057153     16056.36
      8327.8   0.01056115     0.965653  0.006134863     16057.23
        8328   0.01073374    0.9668746  0.006500488     16058.05
      8328.2   0.01105529    0.9682075  0.007159351     16059.79
      8328.4   0.01108939    0.9696902  0.007891626      16059.4
      8328.6    0.0113076    0.9713804  0.008489276     16060.36
      8328.8   0.01156567    0.9731879  0.009252038     16061.69
        8329   0.01179569    0.9749989   0.01006665     16062.35
      8329.2    0.0121411    0.9770918   0.01114911     16063.48
      8329.4   0.01245194    0.9794338   0.01258064     16064.26
      8329.6   0.01264216    0.9821072   0.01423811     16064.96
      8329.8    0.0130887    0.9850634   0.01616423     16066.18
        8330   0.01344845    0.9884823   0.01864918     16066.71
      8330.2   0.01391238    0.9923651   0.02188017     16067.66
      8330.4   0.01451114    0.9970265   0.02550224     16069.04
      8330.6   0.01502825     1.002568   0.03045828        16070
      8330.8   0.01567731     1.008884    0.0367021     16071.11
        8331    0.0162246     1.016732   0.04429917     16071.38
      8331.2   0.01697938     1.026388   0.05425454     16071.97
      8331.4   0.01785339     1.038007   0.06531428     16072.98
      8331.6   0.01866909     1.052288   0.07769106     16073.17
      8331.8   0.01960926     1.068983   0.09158714     16073.58
        8332   0.02072833     1.088541     0.104778     16073.85
      8332.2   0.02207241     1.111277    0.1175554      16074.3
      8332.4   0.02370879      1.13611     0.128919     16074.52
      8332.6   0.02562503     1.163027    0.1372333     16074.48
      8332.8   0.02779622     1.191676    0.1436924     16075.01
        8333   0.03010194     1.221063    0.1474907     16074.35
      8333.2   0.03286312     1.251064    0.1477643     16074.51
      8333.4   0.03569811      1.28102    0.1456802     16074.45
      8333.6   0.03856795     1.309888    0.1425167     16073.72
      8333.8   0.04130972     1.337607     0.138289     16073.41
        8334   0.04396195     1.365077    0.1338621     16073.13
      8334.2   0.04652526     1.391651    0.1280205     16072.94
      8334.4   0.04856732     1.416977    0.1203458     16072.91
      8334.6   0.05010675     1.440024    0.1118101     16072.57
      8334.8    0.0511747     1.461354    0.1027084      16072.5
        8335   0.05176666     1.481099    0.0947261     16072.18
      8335.2   0.05197385     1.499144   0.08669908     16072.74
      8335.4   0.05187291     1.515805   0.07845715     16073.12
      8335.6   0.05159567     1.530713   0.07058382     16074.07
      8335.8   0.05116689     1.543865   0.06286218     16073.52
        8336    0.0510692     1.555611   0.05659322     16074.26
      8336.2   0.05101192     1.566094   0.05158737     16075.15
      8336.4   0.05123571     1.575988    0.0477239     16076.09
      8336.6   0.05149982     1.585135    0.0447628     16077.01
      8336.8   0.05192796      1.59379   0.04233007     16078.09
        8337   0.05252777     1.601905   0.04106589     16078.49
      8337.2   0.05354751     1.609852   0.04097011     16080.52
      8337.4   0.05459836     1.617988   0.04234518     16081.34
      8337.6   0.05583465     1.626566    0.0447875     16082.08
      8337.8     0.057368     1.635781   0.04787828      16083.6
        8338    0.0589849     1.645682   0.05123697     16084.76
      8338.2   0.06082345      1.65629   0.05456037     16085.91
      8338.4   0.06290766     1.667556   0.05782077     16087.42
      8338.6   0.06512282     1.679429   0.06094841     16088.34
      8338.8   0.06748383     1.691939   0.06317094     16088.88
        8339   0.07022192     1.705049   0.06481289     16090.61
      8339.2   0.07301668     1.718093   0.06545232     16091.32
      8339.4   0.07622374     1.731279   0.06435711     16092.61
      8339.6   0.07955546       1.7443   0.06313471     16092.55
      8339.8   0.08329695     1.756535   0.06120099     16093.54
        8340   0.08751126       1.7686   0.05953646     16093.94
      8340.2   0.09207054      1.78024   0.05842216     16094.39
      8340.4   0.09717318      1.79193    0.0576085        16095
      8340.6    0.1030689     1.803272    0.0570305     16095.79
      8340.8    0.1093969     1.814687   0.05678418     16095.88
        8341    0.1164071     1.825865   0.05749974     16096.13
      8341.2    0.1242561     1.837357   0.05888643     16097.13
      8341.4    0.1331664     1.849272   0.06206084     16096.99
      8341.6    0.1434856     1.861796   0.06512272      16098.2
      8341.8    0.1551843     1.875513   0.06895428     16098.57
        8342    0.1677907     1.889455   0.07267507     16099.11
      8342.2    0.1814238     1.904436   0.07668446     16099.52
      8342.4    0.1961812     1.919936   0.08231102      16099.8
      8342.6    0.2128708     1.936861   0.08775696     16100.44
      8342.8    0.2305061     1.955304   0.09343357     16101.62
        8343    0.2489952     1.974641   0.09841547      16102.6
      8343.2      0.26778     1.994683    0.1025552     16103.48
      8343.4    0.2869456     2.015593    0.1065347     16104.08
      8343.6    0.3065363     2.037348    0.1102073     16104.93
      8343.8    0.3262126     2.059869    0.1139588     16105.59
        8344    0.3456555     2.082849    0.1168166     16106.11
      8344.2    0.3649974      2.10676    0.1203593     16106.11
      8344.4    0.3843305     2.130801    0.1234182     16106.74
      8344.6    0.4034171     2.156156    0.1254583     16105.93
      8344.8    0.4225544     2.181584    0.1276618     16106.24
        8345    0.4419488     2.207127    0.1287404     16107.11
      8345.2    0.4613715     2.232931     0.130576      16108.2
      8345.4    0.4813081     2.259149    0.1325496     16108.69
      8345.6    0.5018912     2.286045    0.1332759     16109.36
      8345.8    0.5234459     2.313167    0.1332272     16110.41
        8346    0.5447077     2.339551    0.1314824     16111.43
      8346.2    0.5662755      2.36573    0.1308152     16112.46
      8346.4    0.5884741      2.39123    0.1303505        16114
      8346.6    0.6118321     2.417819    0.1292534     16115.04
      8346.8    0.6358638     2.443832    0.1267448     16116.12
        8347    0.6601329     2.469133    0.1211076     16116.75
      8347.2    0.6837723     2.492626    0.1155387     16116.97
      8347.4     0.707945     2.514705    0.1087632     16117.65
      8347.6    0.7326234     2.536263    0.1030627     16118.12
      8347.8    0.7583379     2.556144   0.09604874     16119.05
        8348    0.7845433     2.575077   0.08646468     16119.58
      8348.2    0.8108188     2.591544   0.07725683     16120.11
      8348.4    0.8363865     2.605435   0.06703782     16120.58
      8348.6     0.862326     2.617949   0.05831687      16120.4
      8348.8    0.8886261     2.628707   0.05051445     16120.22
        8349     0.915412     2.638197   0.04195409     16120.22
      8349.2    0.9427867     2.645846   0.03508764     16119.39
      8349.4     0.970293     2.651512   0.02777032     16119.57
      8349.6    0.9983247     2.656777   0.02086909     16119.16
      8349.8     1.027192     2.660414   0.01527873     16118.71
        8350     1.056584     2.662541  0.009785357     16118.67
      8350.2     1.086723     2.663735  0.004596683     16118.61
      8350.4     1.117593     2.664605 0.0006602092     16119.22
      8350.6     1.149288     2.664091 -0.002566615     16119.08
      8350.8     1.181682      2.66307 -0.004793227     16119.98
        8351     1.214252     2.661682  -0.00712749     16120.04
      8351.2     1.246591     2.660771 -0.009104803     16120.27
      8351.4     1.278338     2.658389   -0.0115333     16120.69
      8351.6     1.310201     2.655786  -0.01424721      16121.1
      8351.8     1.342481     2.652456  -0.01526805     16121.51
        8352     1.374308     2.649373  -0.01627354     16121.75
      8352.2     1.404075     2.646175  -0.01495694     16122.09
      8352.4     1.432236     2.642767  -0.01417784     16121.61
      8352.6     1.458884      2.64049   -0.0128305     16122.39
      8352.8     1.484235     2.638031  -0.01123207      16122.1
        8353     1.507888      2.63591  -0.01009564     16122.22
      8353.2      1.52887     2.633781 -0.008561508     16121.89
      8353.4     1.545871     2.632413 -0.004039984     16122.97
      8353.6      1.55943     2.631181 -0.0006562084     16123.08
      8353.8     1.569121     2.632678  0.003345431     16123.86
        8354     1.574065     2.633256  0.009543866     16124.12
      8354.2     1.574135      2.63509   0.01279141     16124.88
      8354.4     1.569635     2.638816   0.01891697     16126.02
      8354.6     1.559516     2.642911   0.02382767     16126.58
      8354.8     1.544979      2.64839   0.02647557     16127.48
        8355     1.526911     2.654152   0.03113617     16127.71
      8355.2     1.505222     2.659997   0.03360339      16128.3
      8355.4     1.480426      2.66782   0.03649335     16129.08
      8355.6     1.453704     2.675273   0.04038149     16129.75
      8355.8     1.425298     2.683347   0.04087211     16130.86
        8356     1.395197     2.692302   0.04177352     16131.64
      8356.2     1.365393     2.700518   0.04096942      16132.8
      8356.4     1.335993     2.708691   0.03948197     16133.64
      8356.6     1.307205     2.716122   0.03725817     16134.68
      8356.8     1.278955     2.723888   0.03468077     16135.41
        8357     1.251858     2.730324   0.03206427     16136.42
      8357.2     1.226428     2.736436   0.02790143     16136.95
      8357.4     1.203355     2.741774    0.0229686      16138.4
      8357.6     1.182268     2.746209   0.01835007     16139.15
      8357.8     1.163009     2.748699   0.01302273     16140.52
        8358      1.14546     2.751116  0.008190545     16141.46
      8358.2     1.129542     2.752192  0.003333908     16141.99
      8358.4     1.115251     2.752761 -0.001253279      16142.7
      8358.6     1.103468     2.751366 -0.005541593     16143.52
      8358.8     1.092784     2.750113   -0.0104959     16143.86
        8359     1.083539     2.747758  -0.01345769      16145.4
      8359.2     1.075189     2.744365   -0.0171388     16145.66
      8359.4      1.06834       2.7406  -0.02030336     16146.78
      8359.6     1.062396     2.736402  -0.02099519     16146.98
      8359.8     1.057413     2.731516  -0.02148163     16148.42
        8360     1.053016     2.727568   -0.0226011     16148.19
      8360.2     1.049098     2.723415  -0.02122634     16148.51
      8360.4     1.045776     2.718322  -0.02091237     16149.69
      8360.6     1.042646     2.714535  -0.02039814     16150.33
      8360.8     1.039693     2.710839   -0.0191516     16150.63
        8361     1.036956     2.707096  -0.01937012     16151.76
      8361.2     1.034475        2.703  -0.01907309     16152.52
      8361.4     1.032065     2.699039  -0.01869749     16153.24
      8361.6      1.02966      2.69558  -0.01688312      16153.8
      8361.8     1.027337     2.692138  -0.01615701     16155.04
        8362     1.024845     2.689494   -0.0163043     16155.45
      8362.2     1.022349     2.686113  -0.01656529     16156.08
      8362.4     1.019959     2.682537  -0.01738803     16157.13
      8362.6     1.017544     2.678886   -0.0181177     16158.32
      8362.8     1.015293     2.675583   -0.0180669     16159.36
        8363     1.012978     2.671619   -0.0199959     16160.49
      8363.2     1.010782     2.668083  -0.02131631     16161.67
      8363.4     1.008347      2.66289  -0.02189718     16162.13
      8363.6     1.006253      2.65853  -0.02344301     16163.22
      8363.8     1.004377     2.654101  -0.02279438     16164.05
        8364     1.002653     2.649329   -0.0235646     16165.39
      8364.2     1.001105     2.644654  -0.02385503     16166.57
      8364.4    0.9999295     2.639679  -0.02390881     16167.15
      8364.6    0.9989964     2.635017  -0.02398611      16169.1
      8364.8     0.998264     2.630202  -0.02364515     16169.74
        8365    0.9979116     2.625465  -0.02383644      16170.2
      8365.2    0.9980425     2.620762  -0.02331197     16171.38
      8365.4    0.9986486     2.615948  -0.02205611     16172.25
      8365.6    0.9996455     2.611552  -0.02032552     16173.44
      8365.8     1.000847      2.60782  -0.01822397     16174.76
        8366     1.002625     2.604502  -0.01649435     16176.12
      8366.2     1.004708     2.601369  -0.01456619     16177.18
      8366.4     1.007159     2.598357  -0.01289445     16178.82
      8366.6     1.009532     2.596167  -0.01217626     16179.02
      8366.8     1.012152     2.594187  -0.01102034     16179.87
        8367     1.014952     2.591628  -0.01008775      16180.9
      8367.2     1.017932      2.58954 -0.009375723     16181.76
      8367.4     1.021091     2.588097 -0.007832886     16182.83
      8367.6     1.024124     2.586686   -0.0065548     16183.72
      8367.8     1.027108     2.585361 -0.006496912     16184.99
        8368     1.029981     2.584296   -0.0061945     16186.03
      8368.2      1.03283       2.5829 -0.005729775     16187.36
      8368.4     1.035348      2.58173 -0.005825886     16188.94
      8368.6     1.037483     2.580778 -0.004801274     16190.08
      8368.8     1.039137     2.579636 -0.003846474      16190.9
        8369     1.040346     2.579059 -0.003142474     16192.04
      8369.2     1.041071     2.578653 -0.001955161     16192.35
      8369.4     1.041625     2.578264 -0.0009659506     16194.26
      8369.6     1.041547     2.578072 -0.001546287     16195.09
      8369.8     1.040954     2.578286 -0.0009668998     16195.94
        8370     1.039764     2.577416 -0.0007294493     16196.74
      8370.2     1.038221      2.57749 -8.577226e-05     16196.93
      8370.4     1.036173     2.577488  0.002575001     16197.49
      8370.6     1.033763     2.578217  0.003735852     16198.31
      8370.8     1.030834     2.579476  0.005195426     16199.39
        8371     1.027599     2.580479   0.00632585     16199.83
      8371.2     1.024277     2.581644  0.006542664     16200.64
      8371.4     1.020789     2.583278  0.007591839      16202.2
      8371.6     1.017052      2.58471  0.009282826     16202.82
      8371.8     1.012929     2.586552   0.01043058     16203.96
        8372     1.008828     2.589071    0.0123584     16204.18
      8372.2     1.004722     2.591622   0.01360534     16204.84
      8372.4     1.000554     2.594597   0.01410936     16205.64
      8372.6     0.996204     2.597437   0.01495548     16205.94
      8372.8     0.991898     2.600358   0.01636093     16206.71
        8373    0.9874747     2.603587   0.01725393     16207.23
      8373.2    0.9829727     2.607686   0.01916836     16208.46
      8373.4    0.9784902      2.61124     0.019976     16209.06
      8373.6    0.9738881     2.615693    0.0206387     16209.58
      8373.8    0.9691912     2.619567   0.02198234     16209.97
        8374    0.9645305     2.624197   0.02177453     16210.85
      8374.2    0.9598282     2.628826   0.02216193     16211.91
      8374.4    0.9550629     2.633112    0.0229734     16211.67
      8374.6    0.9501546     2.637297   0.02316801     16212.85
      8374.8    0.9450603     2.642575   0.02409089     16213.63
        8375    0.9398511      2.64736   0.02551645     16213.62
      8375.2    0.9347971     2.652385   0.02592289     16214.51
      8375.4    0.9297056      2.65771    0.0270733     16215.09
      8375.6    0.9245592     2.663314   0.02749042     16215.23
      8375.8    0.9194354     2.669019   0.02746906     16216.17
        8376    0.9143595     2.674378   0.02765029     16217.13
      8376.2    0.9093695     2.679685   0.02816241     16217.83
      8376.4    0.9046368     2.685434    0.0295007     16218.69
      8376.6    0.8999331     2.691549   0.03015705     16219.91
      8376.8    0.8951085     2.697978   0.03110279     16220.39
        8377     0.890626     2.703811   0.02996092     16221.97
      8377.2    0.8861772     2.710316   0.02968293     16222.32
      8377.4    0.8819745     2.715517   0.03017754     16223.14
      8377.6      0.87794     2.721724   0.02937955     16224.18
      8377.8    0.8740586     2.727953   0.03018081     16224.88
        8378    0.8703713      2.73382   0.03013071      16225.6
      8378.2    0.8668733     2.739662   0.03020374     16226.21
      8378.4    0.8634091     2.745829    0.0295971     16226.93
      8378.6    0.8604137     2.752116   0.02924437     16228.47
      8378.8    0.8571819     2.757497   0.02903335     16228.71
        8379    0.8540022     2.763057   0.02792222     16229.29
      8379.2    0.8511572     2.769056   0.02758882     16229.68
      8379.4    0.8485527     2.774454   0.02705047     16230.91
      8379.6    0.8459065     2.779569   0.02594202      16231.6
      8379.8    0.8432973     2.784698   0.02534071        16233
        8380    0.8408253     2.789809   0.02474419     16233.39
      8380.2    0.8384786     2.794726    0.0242252     16234.49
      8380.4    0.8363277     2.799364   0.02157031     16235.42
      8380.6    0.8341162     2.804078   0.02009225     16235.78
      8380.8    0.8322244     2.807066   0.01707051      16236.8
        8381    0.8303974       2.8108   0.01534175     16238.13
      8381.2     0.828453      2.81302   0.01494352     16238.08
      8381.4    0.8267661     2.816351   0.01288315     16238.72
      8381.6    0.8252104      2.81902   0.01222067     16240.03
      8381.8     0.823888     2.821107  0.009888647     16240.37
        8382    0.8225463     2.822797   0.00677571     16240.72
      8382.2    0.8213428     2.824262   0.00459821      16241.8
      8382.4    0.8204989     2.824441  0.002239698     16243.02
      8382.6    0.8195757     2.824785 0.0002636736     16243.66
      8382.8     0.818841     2.824589  -0.00111554     16244.23
        8383    0.8183959     2.824473 -0.003239939     16245.72
      8383.2    0.8180357     2.823548 -0.004892077     16246.45
      8383.4    0.8177376     2.822193 -0.006698352     16246.99
      8383.6    0.8177176     2.820675 -0.008154414     16248.41
      8383.8    0.8176168     2.819115 -0.009610765     16248.63
        8384    0.8178653     2.817025  -0.01170361     16250.12
      8384.2    0.8180266     2.814505  -0.01317369      16250.8
      8384.4    0.8183671     2.811312  -0.01442196     16250.81
      8384.6    0.8189177     2.808576  -0.01652671     16252.24
      8384.8    0.8194234     2.805487  -0.01688593     16252.55
        8385    0.8199332     2.801283   -0.0190369     16253.13
      8385.2    0.8207452     2.797803  -0.02071652     16253.85
      8385.4    0.8216538     2.793346   -0.0204906     16254.98
      8385.6    0.8226401     2.788914   -0.0234141      16255.4
      8385.8    0.8236289     2.784891  -0.02448446     16255.05
        8386    0.8249564     2.779072  -0.02559645     16256.73
      8386.2    0.8260946     2.773759  -0.02725934     16257.25
      8386.4    0.8273883     2.768437  -0.02732308     16258.69
      8386.6    0.8283622     2.763083  -0.02752609     16258.44
      8386.8    0.8296192     2.757214   -0.0289048     16259.21
        8387    0.8310035     2.751738  -0.02953978     16259.91
      8387.2    0.8322143     2.745313  -0.03042413      16260.1
      8387.4    0.8337794     2.739452  -0.03113706     16260.99
      8387.6    0.8352603     2.732874  -0.03105243     16261.58
      8387.8    0.8366935     2.726828  -0.03177294     16262.17
        8388    0.8382072     2.720471  -0.03114738     16262.55
      8388.2    0.8397794     2.714033  -0.03136317     16263.86
      8388.4     0.841329     2.707956  -0.03084415     16264.82
      8388.6    0.8429539     2.701737  -0.02977622     16266.04
      8388.8    0.8445871     2.695796  -0.02948262     16266.72
        8389    0.8461022     2.690212  -0.02896384      16266.5
      8389.2    0.8477062      2.68437  -0.02767351     16267.81
      8389.4     0.849373     2.678566  -0.02756267     16268.62
      8389.6    0.8510703     2.673657  -0.02682916     16269.13
      8389.8    0.8527976     2.668162  -0.02583064     16270.26
        8390    0.8544904     2.662907  -0.02503755     16270.65
      8390.2    0.8560843     2.657902   -0.0242902     16270.85
      8390.4    0.8577658     2.653627  -0.02377551     16271.16
      8390.6    0.8595838      2.64873  -0.02374356     16272.01
      8390.8    0.8612527     2.643887  -0.02413395     16271.81
        8391     0.863106     2.638907  -0.02334994      16272.8
      8391.2    0.8648963      2.63432  -0.02245029     16273.24
      8391.4    0.8667295      2.63005  -0.02111992     16273.64
      8391.6    0.8684575     2.625926  -0.02043705     16273.01
      8391.8    0.8705486     2.622011  -0.01982079     16274.83
        8392    0.8724646      2.61797  -0.01970365     16275.15
      8392.2    0.8746971     2.614193  -0.01924499     16275.92
      8392.4    0.8768078     2.610163  -0.01871796     16276.59
      8392.6     0.879151     2.606615  -0.01858836     16277.48
      8392.8    0.8815877     2.602996  -0.01697735     16277.68
        8393    0.8841225     2.599323  -0.01613735     16278.89
      8393.2    0.8866589     2.596582  -0.01475519     16279.55
      8393.4    0.8892255     2.593705  -0.01369414     16280.17
      8393.6    0.8917989     2.591192  -0.01397771     16280.46
      8393.8    0.8947856     2.588367  -0.01367852     16282.02
        8394     0.897657     2.585399  -0.01323037     16282.77
      8394.2     0.900646     2.582762  -0.01211259     16284.04
      8394.4    0.9037109     2.580607    -0.010333     16284.95
      8394.6    0.9067421     2.578677 -0.009076249     16285.26
      8394.8    0.9098377     2.577133 -0.008003074     16285.11
        8395    0.9128958     2.575501 -0.007207849     16285.28
      8395.2    0.9160169     2.574205 -0.006582074     16286.38
      8395.4     0.919265     2.572911 -0.005955987     16287.19
      8395.6    0.9225795     2.571867 -0.005268173     16287.69
      8395.8    0.9258277     2.570737 -0.003726287     16288.04
        8396    0.9291588      2.56999 -0.003243336     16288.57
      8396.2    0.9324655      2.56993 -0.001976862     16290.42
      8396.4    0.9357201     2.569273 -0.001413988     16290.77
      8396.6    0.9390993     2.569155 -0.001811549     16292.32
      8396.8    0.9425735     2.568859 -0.001204925      16293.4
        8397    0.9459383     2.568481 -0.001117513     16294.16
      8397.2    0.9493344     2.568309 -0.001149874     16295.37
      8397.4    0.9526698     2.568261 -0.0005659873     16296.01
      8397.6     0.956097     2.567939 -0.0004080495     16297.09
      8397.8    0.9594182     2.568028 0.0001015748     16297.08
        8398    0.9628008     2.567982 -4.919998e-05     16296.79
      8398.2    0.9660425     2.568342 -3.426222e-05     16297.06
      8398.4    0.9693135       2.5679 0.0002342622     16297.95
      8398.6    0.9722991     2.568001 -0.0001035872     16298.04
      8398.8    0.9754176      2.56817 0.0002185625     16298.23
        8399    0.9785291     2.568259 0.0002624493     16299.31
      8399.2    0.9813713     2.568075 -0.0004146636     16299.65
      8399.4    0.9842281     2.568211 -0.001447564     16300.69
      8399.6    0.9869165     2.567838 -0.002571501     16301.14
      8399.8    0.9897216     2.567101 -0.003116754     16301.83
        8400    0.9923822     2.566473 -0.003183628     16302.57
        8401     1.005551     2.563314 -0.003331966     16306.02
        8402     1.018443     2.559943 -0.002692149     16308.83
        8403     1.032462     2.556571 -0.001733035     16312.79
        8404     1.046898     2.555705 -7.003485e-06     16316.45
        8405     1.061369     2.556382  0.002399954      16320.7
        8406     1.074578     2.559915  0.004380197     16324.84
        8407     1.085771     2.566171  0.006032798      16329.2
        8408     1.093622     2.573225  0.006869607     16333.99
        8409     1.098187     2.580513  0.006708947      16338.6
        8410     1.099171     2.587394  0.006267821     16343.09
        8411     1.097447     2.593007  0.005981149     16346.85
        8412      1.09358     2.598297  0.006008426     16350.11
        8413     1.088445     2.604438  0.007219442     16354.66
        8414     1.082743     2.611427  0.008811521     16359.75
        8415     1.076396     2.621885    0.0101459     16364.13
        8416     1.069975     2.633543   0.01135417     16368.11
        8417     1.063701     2.645022   0.01136848      16372.5
        8418     1.057234     2.656844   0.01087305     16378.16
        8419     1.050391     2.667359   0.01056317     16382.24
        8420       1.0432     2.677035   0.01042736     16385.54
        8421     1.035903     2.687274   0.01084081     16389.24
        8422     1.028719     2.698553   0.01170447     16393.09
        8423     1.021759     2.710722   0.01252528     16396.03
        8424      1.01537     2.723853   0.01340762     16398.52
        8425     1.009787     2.737375   0.01407256     16400.23
        8426     1.004766     2.752184   0.01406916     16402.69
        8427     1.000309     2.767012   0.01365198     16405.34
        8428    0.9966101      2.78013   0.01239991     16409.38
        8429    0.9935955     2.791983   0.01026901     16412.77
        8430    0.9906699     2.801784  0.007625277     16415.61
        8431    0.9883749     2.808088  0.004210911     16421.45
        8432    0.9863968     2.810631 0.0002346602     16425.58
        8433    0.9856576     2.808827 -0.003562514     16429.69
        8434    0.9854617     2.802722 -0.007119612     16433.29
        8435    0.9861312     2.793838  -0.01032284     16437.78
        8436    0.9873004     2.782152  -0.01285206     16441.93
        8437    0.9886244     2.767536  -0.01476323     16443.74
        8438    0.9899574     2.751314  -0.01616873     16446.34
        8439    0.9911135     2.734785  -0.01689851     16451.82
        8440     0.991538     2.717477  -0.01724901     16456.55
        8441    0.9916412     2.699942  -0.01739715     16460.36
        8442    0.9916916     2.682318  -0.01693754     16464.43
        8443    0.9915543     2.665197  -0.01601094      16468.3
        8444    0.9913968     2.649727  -0.01482734      16473.1
        8445    0.9908904     2.635898  -0.01313924     16476.56
        8446    0.9904206     2.623008   -0.0116971     16479.36
        8447    0.9900288      2.61264  -0.01106965     16481.57
        8448    0.9898518     2.602939  -0.01089436     16485.43
        8449    0.9897677     2.591619  -0.01200917     16490.56
        8450    0.9896462     2.579431  -0.01351011     16494.88
        8451    0.9896248     2.564603  -0.01465369     16498.75
        8452    0.9894907     2.548898  -0.01556412     16502.86
        8453    0.9894343     2.533004  -0.01566478     16507.46
        8454     0.989272     2.517175  -0.01510673     16510.04
        8455    0.9894394     2.501944  -0.01394184     16513.23
        8456     0.990424     2.488471  -0.01199883      16517.7
        8457    0.9917884     2.477237 -0.009523547     16522.67
        8458    0.9929775     2.469179  -0.00662739     16525.58
        8459    0.9942442      2.46385  -0.00371931      16529.5
        8460    0.9951445     2.461962 -0.0008031559     16533.39
        8461    0.9954855      2.46236  0.001943263     16537.24
        8462    0.9953402     2.465967  0.004342739     16541.53
        8463    0.9950145     2.471623  0.006705864     16544.76
        8464    0.9945552     2.479333   0.00827173     16547.78
        8465    0.9933404     2.489183  0.009507107     16551.48
        8466     0.991227     2.499054   0.01048788     16555.43
        8467    0.9886802     2.509651   0.01091242        16559
        8468    0.9854954     2.521284   0.01152865     16562.13
        8469     0.981171     2.532833   0.01146728     16565.37
        8470    0.9760222     2.545168    0.0108242     16568.38
        8471    0.9706518      2.55552  0.009676073     16571.99
        8472    0.9652129     2.564581  0.007841673     16574.34
        8473    0.9600554     2.571537  0.005970565     16577.87
        8474    0.9555725     2.576535   0.00383751     16581.68
        8475    0.9517883     2.579403  0.001776206     16585.43
        8476     0.948885     2.579931 0.0001152407      16588.5
        8477    0.9472899     2.578642  -0.00143246     16591.07
        8478    0.9466129     2.576996 -0.002441203     16593.81
        8479    0.9470049     2.573673 -0.002528075     16597.33
        8480    0.9485438     2.570166 -0.002087172     16602.25
        8481     0.950779      2.56853 -0.0005809441     16608.24
        8482    0.9539294     2.568647   0.00171123     16613.37
        8483    0.9579455     2.571349  0.004597726     16618.43
        8484    0.9625379     2.577011  0.007977219     16623.13
        8485    0.9674243     2.586921   0.01157975     16624.24
        8486     0.972831     2.600556   0.01491766     16626.25
        8487    0.9784681     2.617668   0.01751044     16629.37
        8488    0.9844131     2.636682   0.01908384     16633.93
        8489     0.989929     2.656963   0.01948558     16637.07
        8490    0.9951841     2.676891   0.01906752     16640.24
        8491    0.9999712      2.69561    0.0176692     16645.04
        8492     1.004216     2.712952   0.01562823     16650.29
        8493     1.008052     2.727639   0.01323049     16654.78
        8494     1.010897     2.739404   0.01054412     16658.39
        8495     1.012711     2.748532  0.007889851     16660.46
        8496     1.014271     2.755128  0.005717844     16663.41
        8497     1.015732     2.759199  0.003787079     16667.57
        8498     1.017188     2.762276    0.0020427     16670.19
        8499     1.018478     2.763681 0.0007091782     16672.35
        8500     1.019546     2.763299 -0.0006903668     16675.84
        8501     1.020513     2.762035 -0.002326985     16680.71
        8502     1.021542     2.759514 -0.004025728     16685.51
        8503     1.022683     2.754373  -0.00605498     16691.07
        8504     1.023909     2.747196 -0.008532928     16694.13
        8505     1.025708     2.737816  -0.01067065     16697.08
        8506     1.027752     2.725382  -0.01274126     16700.27
        8507      1.02964      2.71169  -0.01482035     16703.88
        8508     1.031447     2.696231  -0.01654795     16707.06
        8509     1.033494     2.678534  -0.01838452     16710.77
        8510     1.035616     2.659191  -0.02015142     16713.92
        8511     1.037758     2.638152   -0.0214315     16718.24
        8512     1.040144     2.615626  -0.02245933     16723.67
        8513     1.042676     2.592808  -0.02318292     16727.61
        8514     1.046334     2.569353  -0.02384616     16728.74
        8515     1.050927      2.54542  -0.02414324     16717.38
        8516     1.053905     2.520241  -0.02422973     16694.73
        8517     1.054301     2.496235  -0.02362996     16684.84
        8518     1.052879     2.472434  -0.02213967     16683.43
        8519     1.052085       2.4509  -0.02019386     16684.78
        8520     1.051023     2.431682  -0.01747499     16687.21
        8521     1.050497      2.41546  -0.01470371     16691.28
        8522     1.048897     2.402534  -0.01142357     16695.69
        8523     1.046124     2.392086 -0.007914118        16700
        8524     1.043142     2.385988 -0.004450744     16704.85
        8525     1.039815     2.383803 -0.0008884143     16707.64
        8526     1.037451     2.384731  0.002346287     16710.66
        8527       1.0355     2.388532  0.005220294     16715.36
        8528     1.032354     2.395373  0.007769606     16723.62
        8529     1.028096     2.404684  0.009973094     16729.78
        8530     1.023409      2.41581   0.01147911        16732
        8531     1.019482     2.428424   0.01243949     16733.52
        8532     1.016279      2.44129   0.01291475     16738.69
        8533     1.011916     2.454442   0.01291529     16742.31
        8534     1.006797     2.467469   0.01263358     16745.59
        8535     1.000579     2.480086   0.01201691     16750.23
        8536    0.9951846     2.491824   0.01110203     16753.06
        8537    0.9909954      2.50251   0.01016592     16755.52
        8538    0.9867745     2.511877   0.00903388     16755.03
        8539    0.9837377     2.520749  0.007778631     16757.13
        8540    0.9819857     2.527959  0.006479098     16765.68
        8541    0.9812193     2.533625   0.00512152      16770.6
        8542    0.9809943     2.537793   0.00372421     16771.79
        8543    0.9807961     2.541235  0.002409405     16776.48
        8544    0.9817211     2.542856  0.001122046     16782.66
        8545    0.9824468     2.543262 -0.0001865357     16786.81
        8546     0.981986     2.542282  -0.00103199     16788.73
        8547    0.9814797     2.540489  -0.00176631     16792.04
        8548    0.9815857     2.538728 -0.002104062     16796.46
        8549    0.9831311     2.536197 -0.002316755     16801.12
        8550    0.9847988     2.533865 -0.002585638     16805.45
        8551    0.9859395     2.531222 -0.002777997     16810.53
        8552    0.9876352     2.528386 -0.003043988     16812.13
        8553    0.9900418     2.525085 -0.003192901     16814.51
        8554    0.9928754     2.521689 -0.003435143     16819.28
        8555    0.9944493      2.51845 -0.003670084     16823.05
        8556    0.9951513     2.514645 -0.003916876     16827.37
        8557    0.9960823     2.510405 -0.004078344     16831.04
        8558    0.9976837     2.506022 -0.004244569      16836.3
        8559     1.000869     2.502137 -0.004201741     16838.65
        8560     1.003257     2.497667 -0.003730412     16839.22
        8561     1.003568     2.493598 -0.003026467     16841.34
        8562     1.003845       2.4911 -0.001912511      16847.5
        8563     1.003587     2.490031 -0.0004848712     16853.12
        8564     1.003204     2.490017  0.001242354     16856.06
        8565     1.003782     2.491658  0.003098187     16859.83
        8566     1.004724      2.49607   0.00484905     16866.26
        8567     1.005179     2.502424   0.00655582     16868.69
        8568     1.004724     2.509413  0.007900865     16868.95
        8569     1.003968     2.517881  0.008857976     16873.73
        8570     1.004286     2.527673  0.009502057     16878.97
        8571     1.005328     2.537856  0.009583128     16885.32
        8572     1.005938     2.547421  0.009126949     16893.79
        8573     1.006585     2.556214  0.008442616      16900.2
        8574     1.007509     2.564181  0.007678351      16902.6
        8575     1.008226     2.571626  0.006971319     16904.93
        8576     1.009068     2.578135  0.006036003     16909.55
        8577     1.010337     2.584099  0.005020617     16913.46
        8578     1.012472     2.588325  0.004216945     16918.61
        8579     1.014273     2.591709  0.003187754     16924.81
        8580     1.015542     2.595002  0.002497927     16929.48
        8581     1.016581      2.59685  0.001646636     16933.27
        8582     1.016037     2.598317 0.0005358403     16938.11
        8583     1.015581     2.598295 -0.0005417597     16941.45
        8584     1.015688     2.597146 -0.001721427     16943.35
        8585     1.015207     2.594683  -0.00285099     16944.93
        8586     1.014784     2.591431  -0.00417818      16946.6
        8587     1.014987     2.586891 -0.005399683     16947.65
        8588     1.015228     2.580433 -0.006695606     16948.94
        8589      1.01561     2.573084 -0.008017813     16952.76
        8590     1.015337     2.564648 -0.008906456     16960.24
        8591     1.015678      2.55482 -0.009756159     16965.53
        8592     1.016096     2.544807  -0.01060792     16965.96
        8593     1.016624      2.53406  -0.01108644     16966.74
        8594     1.018137     2.522217  -0.01160781     16970.28
        8595     1.019903     2.510474  -0.01173143     16974.25
        8596     1.018901     2.498376  -0.01154391     16977.18
        8597     1.016398     2.487134  -0.01120127      16978.6
        8598     1.014018     2.476041  -0.01070903     16981.13
        8599     1.011779     2.465669  -0.01049301     16984.73
        8600     1.010388      2.45554 -0.009901974     16991.65
        8601     1.008851     2.445162 -0.009151646     16995.47
        8602     1.007381     2.436433 -0.008456404     16995.65
        8603     1.006528     2.429063 -0.007361829     16998.99
        8604     1.004655     2.421714 -0.006301915     17006.46
        8605     1.002004     2.415715 -0.005534121     17014.02
        8606    0.9998825     2.411226 -0.004417958      17017.3
        8607    0.9979104     2.406926 -0.003522874     17021.35
        8608    0.9965653     2.404042 -0.002811971     17026.56
        8609    0.9955428     2.401623 -0.001851017      17029.3
        8610    0.9949137     2.399978  -0.00124464     17032.57
        8611    0.9941877     2.399522 -0.0005886094     17036.11
        8612    0.9937319     2.399064 -0.0002245055     17040.99
        8613     0.993618     2.399269 -0.0001617715     17043.71
        8614    0.9939913      2.39908 -4.013604e-05     17045.13
        8615    0.9943742     2.398875 -0.0001645625     17049.71
        8616    0.9940801     2.398903 -8.481449e-05     17051.71
        8617    0.9938231     2.398611 -5.895851e-05     17052.85
        8618    0.9938929      2.39874  -0.00011337     17055.06
        8619    0.9941275     2.398639 -0.0001804495      17056.2
        8620    0.9946719      2.39845 -0.0003459815     17055.72
        8621    0.9951473     2.397889 -0.0004863875      17051.3
        8622    0.9958431     2.397357 -0.000458255     17030.86
        8623    0.9964761     2.396694 -0.0004240554     16946.81
        8624    0.9959681     2.396617 -0.000175982      16814.6
        8625    0.9959263     2.396193 -6.908452e-05     16842.47
        8626    0.9948749     2.396653 -0.000132141     16899.86
        8627    0.9957369     2.396417 -0.000119562     17050.28
        8628    0.9965673     2.396088 -7.227496e-05     17089.09
        8629    0.9979038     2.395714 0.0001444826     17099.41
        8630    0.9987662     2.396363 0.0004788271     17105.44
        8631    0.9987884     2.396995 0.0009847705     17111.88
        8632    0.9988086     2.398004  0.001212297     17117.48
        8633     0.998612     2.399653  0.001487258     17119.85
        8634    0.9986584     2.401213  0.001758597     17121.33
        8635    0.9987446     2.402944  0.001865588     17125.43
        8636    0.9989702     2.405038  0.002096266     17131.08
        8637    0.9996616     2.407116  0.002193047     17137.02
        8638     1.000106     2.409598  0.002275086     17138.98
        8639     1.000457     2.411717  0.002198737     17141.33
        8640      1.00026     2.414138  0.002047833      17144.4
        8641     1.000517     2.415911  0.001938332     17146.06
        8642     1.000527     2.417789  0.001790595     17147.18
        8643     1.000752      2.41947  0.001693066     17149.86
        8644     1.001843     2.421301   0.00161052     17153.42
        8645     1.002633     2.422683  0.001529214     17155.77
        8646     1.002202     2.424231  0.001248307     17160.86
        8647     1.001711     2.425587  0.001070871     17165.42
        8648     1.002109     2.426294 0.0008508945     17170.13
        8649     1.002702     2.426966  0.000690636     17174.83
        8650      1.00381     2.427635 0.0006644115     17180.61
        8651     1.004446     2.428349 0.0007421705     17185.54
        8652     1.004913     2.428952 0.0008027495     17190.33
        8653     1.005858     2.429935  0.000792692     17193.23
        8654      1.00704     2.430846 0.0008631425     17195.65
        8655     1.008558      2.43152  0.000887042     17199.78
        8656     1.009849     2.432404  0.000916264     17204.88
        8657      1.01009     2.433483  0.001002356      17208.8
        8658     1.010562     2.434511  0.001085404     17211.33
        8659     1.011868     2.435529  0.001170068     17214.49
        8660      1.01298     2.436746  0.001430993      17216.5
        8661     1.013107     2.438164  0.001490273     17219.98
        8662      1.01262     2.440235  0.001466842      17223.3
        8663     1.012672     2.441491  0.001546817     17226.94
        8664     1.012953     2.442613  0.001566025     17230.21
        8665     1.013445     2.444351  0.001488064     17231.84
        8666     1.013687     2.446499  0.001337961     17233.11
        8667     1.013849     2.447443  0.001110232     17237.49
        8668     1.013742     2.447965 0.0005256379     17241.18
        8669     1.013607     2.448792 7.595146e-05     17245.17
        8670     1.013065     2.448601 -0.0002229777      17249.7
        8671     1.012916     2.447747 -0.0009301786     17253.79
        8672     1.012632     2.447073 -0.001347964      17255.9
        8673     1.011422     2.445071 -0.001735768     17259.03
        8674     1.009609      2.44321 -0.002291491     17262.85
        8675     1.008261     2.440804 -0.002615677     17265.28
        8676     1.006981     2.437907 -0.003026425     17267.64
        8677     1.005722     2.434608 -0.003459025     17271.49
        8678     1.004965     2.431104 -0.003820013     17275.66
        8679     1.004448     2.426967  -0.00400939     17280.84
        8680     1.003496     2.422627 -0.004285048      17284.4
        8681     1.001327     2.418571 -0.004320496     17288.05
        8682    0.9989356     2.413964 -0.004422563     17293.33
        8683     0.996735     2.409685 -0.004571448     17296.98
        8684    0.9951613     2.404937  -0.00458299     17297.92
        8685    0.9944461     2.400285 -0.004670083     17299.65
        8686    0.9936982     2.395632 -0.004508837     17300.95
        8687    0.9930424     2.391005 -0.004335036     17302.76
        8688    0.9926657     2.386901 -0.004071841     17305.69
        8689     0.991599     2.382945 -0.003656787     17309.54
        8690    0.9908708     2.379344 -0.003237481     17313.85
        8691    0.9904064     2.376378 -0.002805878     17316.64
        8692    0.9900038     2.373951 -0.002390774     17319.29
        8693    0.9894054     2.371721 -0.001950498     17322.78
        8694    0.9891256     2.369781 -0.001550838     17327.98
        8695    0.9887482     2.368576 -0.001172066     17331.85
        8696    0.9885546     2.367748 -0.0007785735     17335.12
        8697    0.9886204     2.367033 -0.0006055645     17334.81
        8698    0.9884073     2.366667 -0.000440236     17323.24
        8699    0.9880758     2.366154 -0.0004678745     17310.73
        8700    0.9880019     2.365987 -0.000450328     17315.76
        8701    0.9882247     2.365162 -0.0005629196     17327.48
        8702    0.9881071     2.364866 -0.000927504     17341.15
        8703    0.9879188     2.363902 -0.001132785     17350.52
        8704     0.987912     2.362277  -0.00144514     17355.03
        8705    0.9886673      2.36063 -0.001820988     17355.52
        8706    0.9897292     2.359085 -0.002205678     17347.45
        8707    0.9900152     2.356618 -0.002550819     17338.34
        8708    0.9895121     2.353454 -0.003101924     17342.77
        8709    0.9888589     2.350427 -0.003394434     17353.07
        8710     0.988456     2.346677 -0.003583571     17364.46
        8711    0.9884517      2.34304 -0.003834139     17372.94
        8712    0.9884554      2.33912 -0.003770389     17379.04
        8713     0.988735     2.335091 -0.003664936     17383.67
        8714    0.9887754     2.331596 -0.003528163     17387.51
        8715    0.9884773     2.328381 -0.003143957     17392.07
        8716    0.9878445     2.325008 -0.002790715     17396.64
        8717    0.9874637     2.322515 -0.002334543     17400.62
        8718    0.9870605     2.320433 -0.001801753     17403.62
        8719    0.9870573     2.319042 -0.001369428     17409.52
        8720    0.9869414     2.317801 -0.001012284     17414.29
        8721    0.9872923     2.317037 -0.0007605235     17417.39
        8722    0.9881088     2.316384  -0.00062879     17418.33
        8723    0.9886384        2.316 -0.000552389     17420.59
        8724    0.9884943     2.315285 -0.0004303795     17423.91
        8725    0.9885627     2.314827  -0.00058838     17428.26
        8726    0.9889221     2.314662 -0.000465748     17431.69
        8727    0.9897115     2.313647 -0.0005528025     17436.09
        8728    0.9905324     2.313422 -0.0005430834     17440.52
        8729    0.9914452     2.312616 -0.000265901     17443.43
        8730    0.9922266      2.31249 -0.000309237     17445.04
        8731    0.9930634     2.312583 -0.000184421     17447.23
        8732    0.9933756     2.312185 -0.0001646965     17450.88
        8733    0.9937418     2.311879 -0.0002132285     17456.92
        8734    0.9947431     2.311831 -8.527496e-05     17462.32
        8735    0.9961969      2.31173   8.7687e-05      17465.2
        8736    0.9973942     2.311844  0.000113862     17467.63
        8737    0.9983373     2.312229 0.0001603745     17469.76
        8738    0.9996234     2.312287  0.000170655     17475.13
        8739     1.000241     2.312372 0.0001266605     17480.18
        8740     1.000805     2.312527  0.000248648     17482.77
        8741     1.001206     2.312736 0.0002592955     17483.24
        8742     1.000983     2.313281 0.0003877075     17484.85
        8743     1.000638     2.313409  0.000467367     17487.29
        8744     1.000816     2.314078 0.0003970145     17489.86
        8745      1.00136     2.314605 0.0004899485     17495.39
        8746     1.001777     2.314869  0.000482086     17498.35
        8747     1.002093     2.315369 0.0004613135     17498.86
        8748     1.002502     2.316006 0.0005458095     17500.04
        8749     1.002845     2.316451 0.0004611825     17502.25
        8750     1.003331     2.317053  0.000391525     17506.27
        8751     1.004269     2.317214 0.0004598645     17509.02
        8752     1.005396     2.317572 0.0004366985     17511.58
        8753     1.005709      2.31829  0.000530605     17514.66
        8754     1.006112     2.318799  0.000524743     17519.64
        8755     1.006466     2.319336 0.0004287465      17523.4
        8756     1.006874     2.319671 0.0004197945     17526.47
        8757     1.007331     2.320005  0.000281824     17529.08
        8758     1.007371     2.320479 0.0002960185     17530.38
        8759     1.007214     2.320463  0.000218093      17533.4
        8760      1.00654     2.320855  0.000174234     17537.89
        8761     1.005862     2.320877 0.0002382135     17543.56
        8762     1.005039     2.321175  0.000231673     17548.19
        8763      1.00411     2.321416  0.000273602     17552.03
        8764     1.003253     2.321782  0.000166505     17555.35
        8765      1.00258     2.321972 0.0001030025     17558.04
        8766     1.002192     2.321841 6.384798e-05     17560.38
        8767     1.001593     2.321828 7.139038e-06     17562.27
        8768      1.00094     2.322037 0.0001496565     17565.59
        8769     1.000272        2.322 0.0001029575      17569.7
        8770     0.999685      2.32244 -1.396449e-05     17572.38
        8771    0.9991704      2.32224 -1.063405e-05     17575.27
        8772    0.9985017     2.321981 -0.0002469955     17578.96
        8773    0.9975362     2.321958 -0.000371542     17581.93
        8774    0.9969743     2.321452 -0.0003809015     17585.82
        8775     0.996828     2.320754 -0.000525545     17589.31
        8776    0.9964143     2.320458 -0.0006458515     17591.53
        8777    0.9956178     2.319856 -0.0007904586     17592.63
        8778    0.9949438     2.318869 -0.001041625     17593.81
        8779    0.9944418     2.317592 -0.001292317     17596.04
        8780    0.9939003     2.316291 -0.001422751      17598.2
        8781    0.9936402     2.314686 -0.001580046     17602.64
        8782    0.9936418     2.313178 -0.001670476     17606.53
        8783    0.9937227     2.311272  -0.00176533      17609.4
        8784    0.9939952     2.309609 -0.001962524     17611.26
        8785    0.9945164     2.307625 -0.002183043        17613
        8786    0.9944176     2.305328 -0.002295998        17615
        8787    0.9941731      2.30254 -0.002542132     17617.06
        8788    0.9944301     2.300425 -0.002580406      17618.3
        8789    0.9947656     2.297457 -0.002489107     17619.89
        8790    0.9950297     2.295006 -0.002606722     17623.71
        8791    0.9952248     2.292583 -0.002419464     17628.31
        8792    0.9945464     2.289999 -0.002458382      17632.5
        8793    0.9936619     2.287779 -0.002479864     17636.13
        8794    0.9931955     2.285172 -0.002375908     17638.31
        8795    0.9931223     2.282664 -0.002274108     17640.21
        8796    0.9934341     2.280495 -0.002117078     17642.56
        8797    0.9939847     2.278682 -0.001972864     17644.98
        8798    0.9942472     2.276704 -0.001799821     17646.51
        8799    0.9940472     2.274772 -0.001614684     17647.29
        8800    0.9939422     2.273296 -0.001536958     17649.53
        8801    0.9936055     2.272224   -0.0013407     17653.12
        8802    0.9930829     2.270556 -0.001165163     17655.76
        8803    0.9929439     2.269409 -0.001139715     17658.52
        8804     0.992992     2.268635 -0.0008908495     17662.42
        8805    0.9932237     2.267665 -0.0007591855     17666.15
        8806    0.9935161     2.266993  -0.00072026     17668.87
        8807    0.9935939     2.266373 -0.000614971     17671.82
        8808    0.9937648     2.265754 -0.000564412     17674.72
        8809    0.9937968     2.265205 -0.000517451     17678.11
        8810    0.9939109     2.264735 -0.0005668395     17680.68
        8811    0.9941407     2.264303 -0.0005799105     17683.81
        8812    0.9942774     2.263487  -0.00060413      17685.8
        8813    0.9946197     2.262885 -0.000671531     17687.02
        8814    0.9948028     2.262319 -0.000622628     17689.79
        8815    0.9949199     2.261617 -0.000591683     17694.08
        8816    0.9949191     2.260996 -0.000704612     17697.34
        8817    0.9947379     2.260518 -0.000766902     17700.94
        8818     0.994532       2.2595 -0.0008023016     17704.09
        8819    0.9940846     2.258549 -0.001017009     17706.15
        8820    0.9935081     2.257787 -0.001015212     17708.12
        8821    0.9932477      2.25645 -0.001076586     17709.15
        8822    0.9927318     2.255439 -0.001190423     17709.53
        8823    0.9925242     2.254243 -0.001283594     17708.77
        8824    0.9922179     2.253025 -0.001489351     17707.49
        8825    0.9920185     2.251316 -0.001643248     17706.97
        8826     0.992446     2.249482 -0.001771165     17704.81
        8827    0.9928405      2.24767 -0.001691993     17700.17
        8828    0.9931257     2.245941 -0.001635197     17691.35
        8829    0.9935422     2.244548 -0.001817686      17673.9
        8830    0.9944645     2.242941 -0.001744086      17629.3
        8831    0.9971284     2.240399 -0.001514402     17491.63
        8832    0.9992254     2.238964   -0.0018034     17231.96
        8833    0.9952896      2.23849 -0.001359374     17210.59
        8834    0.9975591     2.235728 -0.001246998     17341.21
        8835    0.9974022     2.234962 -0.001647239     17245.34
        8836    0.9941221     2.233976 -0.001226736     17464.28
        8837    0.9965063     2.231902 -0.001372738     17702.11
        8838    0.9974843     2.230821 -0.001425434     17759.21
        8839    0.9979488     2.229471 -0.001233528      17773.3
        8840    0.9981137     2.228274 -0.001259968     17779.54
        8841    0.9983877     2.226967 -0.001147352     17783.63
        8842     0.998814     2.225781 -0.001026579     17785.84
        8843    0.9990843     2.224881 -0.000975687     17789.13
        8844    0.9991955     2.224168 -0.001007249     17792.61
        8845    0.9995439     2.223065 -0.001007054     17793.71
        8846    0.9997802     2.221752 -0.001085025      17795.4
        8847    0.9992624     2.220853  -0.00113604     17798.06
        8848    0.9989972     2.219828 -0.001075113     17802.25
        8849    0.9993065     2.218521  -0.00116006     17806.33
        8850    0.9994563     2.217451 -0.001095386     17810.21
        8851    0.9996642     2.216213 -0.0009823245     17812.73
        8852     1.000016     2.215447 -0.000990592     17814.31
        8853     1.000473     2.214591 -0.000925687     17815.85
        8854     1.000983     2.213489 -0.000931649     17818.45
        8855     1.001115      2.21251 -0.000844404      17821.6
        8856     1.000841      2.21172 -0.000695079     17823.48
        8857      1.00031     2.211214 -0.000725615     17825.38
        8858     1.000229     2.210709 -0.000668937     17827.38
        8859     1.000366     2.209608 -0.000598507     17831.03
        8860     1.000282     2.209044 -0.0006096659     17835.44
        8861     1.000025      2.20882 -0.0003460455     17840.41
        8862     1.000111      2.20827 -0.000263022      17846.5
        8863     1.000382     2.208223 -0.0003120365     17850.35
        8864     1.000565     2.207992 -0.0002465525     17852.02
        8865     1.000827     2.207571 -0.000210112     17853.92
        8866     1.000922     2.207284 -0.0001805795     17855.12
        8867      1.00113     2.207383 -5.560197e-05     17856.81
        8868     1.001337      2.20727 2.956699e-05     17859.75
        8869     1.001206     2.207349 -2.44005e-05     17861.58
        8870     1.001033     2.207402 -6.572489e-06     17865.03
        8871     1.000984     2.207285 4.159601e-05      17868.7
        8872     1.000802     2.207243   6.0128e-05     17871.75
        8873     1.000411     2.207515 6.444901e-05     17875.39
        8874     1.000336     2.207643 0.0001032445     17879.12
        8875     1.000346     2.207543 8.063551e-05     17881.58
        8876     1.000367     2.207656  0.000109535     17884.26
        8877     1.000444     2.207838  0.000109002     17886.32
        8878       1.0004     2.208081  0.000180546      17887.4
        8879    0.9999519     2.207979 0.0002810235     17890.15
        8880    0.9997553     2.208379  0.000271094     17894.03
        8881     1.000126     2.208962 0.0003722555     17897.34
        8882     1.000615     2.209165  0.000414978      17899.9
        8883     1.001175     2.209468  0.000333184     17901.74
        8884     1.001271     2.210039  0.000308728     17903.22
        8885     1.000067     2.210295  0.000242343     17905.73
        8886    0.9985436       2.2104 0.0002118135     17910.01
        8887      0.99752     2.210438  0.000149894     17913.52
        8888    0.9968668     2.210886  0.000147428     17916.91
        8889    0.9964314     2.210894 0.0001014785     17920.29
        8890    0.9964516      2.21099 1.074249e-05     17923.31
        8891    0.9970581     2.210843 -7.036653e-05      17925.7
        8892    0.9974283     2.210929 -0.0001962115     17928.32
        8893    0.9967235     2.210613 -0.000283795        17930
        8894    0.9961503     2.210205 -0.0004162715     17932.22
        8895    0.9963655     2.209708 -0.0005435405     17935.43
        8896    0.9964213     2.209264 -0.0006305445     17938.74
        8897    0.9965442     2.208439 -0.0007425445      17941.6
        8898    0.9965326     2.207683 -0.0009320355     17944.33
        8899      0.99642     2.206738 -0.000988842        17947
        8900    0.9962185     2.205536 -0.001192144     17949.64
        8901    0.9959865     2.204483 -0.001389722     17952.72
        8902     0.995888     2.202914 -0.001446641     17956.25
        8903    0.9956944     2.201179  -0.00152358     17958.22
        8904    0.9956851     2.199749 -0.001639838     17960.22
        8905    0.9955333     2.198389 -0.001582707     17962.81
        8906    0.9950985     2.196355 -0.001666381     17964.11
        8907    0.9947217     2.194848 -0.001868771     17967.11
        8908    0.9949598     2.193083 -0.001739189     17970.27
        8909    0.9957354     2.190914 -0.001818718     17973.72
        8910    0.9959901     2.189398 -0.001769826     17975.83
        8911    0.9960673     2.187573 -0.001642213     17980.28
        8912    0.9956551     2.186004 -0.001620971     17983.39
        8913    0.9953162     2.184345 -0.001574631     17985.82
        8914    0.9948531     2.182914 -0.001580586     17987.21
        8915    0.9945959     2.181275 -0.001632097     17989.82
        8916    0.9946719     2.179682 -0.001631874     17992.04
        8917    0.9951696     2.177817 -0.001529189     17994.78
        8918     0.995875     2.176387  -0.00134754     17997.13
        8919    0.9963814     2.175158 -0.001221507     18000.05
        8920    0.9965142     2.174292 -0.001119949     18003.59
        8921     0.996174     2.172931  -0.00115688     18005.69
        8922    0.9958781     2.171907 -0.001160878     18008.16
        8923    0.9956399     2.170531 -0.001074722     18011.36
        8924    0.9953765     2.169648 -0.001048407     18013.92
        8925    0.9951634     2.168632 -0.000928307     18017.17
        8926    0.9950872     2.167713 -0.0009699625     18020.79
        8927    0.9950325     2.166817 -0.0009488055     18022.74
        8928    0.9951517     2.165768 -0.000942201     18023.98
        8929    0.9952419     2.164837 -0.0009923475     18026.01
        8930    0.9951945     2.163944 -0.0009464545     18028.56
        8931    0.9952278     2.162848 -0.0009533855     18031.05
        8932    0.9953851     2.161982 -0.0009316035     18034.18
        8933    0.9957745     2.161023  -0.00090917     18037.92
        8934    0.9961022     2.160218 -0.0008762345     18040.57
        8935    0.9962823     2.159211 -0.000846163     18041.96
        8936    0.9967549     2.158478  -0.00074855     18038.57
        8937     0.997583     2.157638 -0.0006102425     18014.09
        8938    0.9976454     2.157224 -0.000690289     17962.66
        8939    0.9969581      2.15677 -0.000687809     17943.39
        8940    0.9965955     2.155716 -0.0007576555     17966.94
        8941      0.99664     2.154887 -0.0008190985     18019.19
        8942    0.9970191     2.154193 -0.000756378        18044
        8943    0.9967368     2.153494 -0.000770717     18050.86
        8944     0.996909     2.152691 -0.000782719     18057.12
        8945    0.9969384     2.151804 -0.0008672645      18063.7
        8946    0.9967014     2.151062 -0.000829087     18068.27
        8947    0.9965492     2.150025  -0.00084573     18071.76
        8948    0.9965823     2.149375 -0.0008546245     18074.58
        8949    0.9968291     2.148421  -0.00081315     18077.47
        8950    0.9969612     2.147644 -0.000862376     18078.76
        8951    0.9969926     2.146772 -0.0008478975     18080.92
        8952    0.9972766     2.145925 -0.0008703595     18082.68
        8953    0.9979033      2.14503 -0.0008808605      18085.6
        8954     0.998382     2.144162 -0.0009390635     18089.17
        8955    0.9989492     2.143249 -0.0009187795      18092.8
        8956    0.9996105     2.142169 -0.0009914555     18094.72
        8957    0.9999504     2.141355 -0.000978772     18095.73
        8958     1.000232     2.140197 -0.0009223735     18097.56
        8959     1.000367     2.139334 -0.000965724     18099.59
        8960     1.000481     2.138479 -0.0008826495     18100.59
        8961     1.000765     2.137492 -0.0008738305     18103.35
        8962     1.000785     2.136666 -0.000869809     18106.73
        8963     1.000565     2.135839 -0.0008789485     18110.05
        8964     1.000364        2.135  -0.00094853     18112.56
        8965     1.000274     2.133976 -0.001028231     18116.24
        8966     1.000236     2.132872 -0.001094178     18119.86
        8967     1.000299     2.131726 -0.001088237     18121.62
        8968     1.000241     2.130623 -0.001034395     18123.37
        8969     1.000326     2.129623 -0.0009611155     18124.87
        8970     1.000466     2.128734  -0.00096079     18126.59
        8971     1.000505     2.127881 -0.000917981     18130.46
        8972     1.000477      2.12678 -0.0008759845     18135.85
        8973     1.000358     2.125951 -0.000869187     18138.78
        8974     1.000103      2.12523 -0.000818998     18140.66
        8975    0.9996713     2.124404 -0.000812271     18142.23
        8976    0.9994527     2.123504 -0.0008297545     18144.45
        8977    0.9995529     2.122702 -0.000834762        18147
        8978    0.9998258     2.121911 -0.0007914565     18148.75
        8979    0.9997216     2.121065 -0.000804253     18149.65
        8980    0.9993805     2.120338 -0.0008376755     18151.52
        8981    0.9992012     2.119485 -0.000763732     18152.92
        8982    0.9992431     2.118561 -0.0007451995     18153.61
        8983    0.9994942      2.11801 -0.0007160125      18154.6
        8984    0.9996453     2.117358 -0.0006507785     18156.27
        8985    0.9995833     2.116621  -0.00067635     18158.13
        8986    0.9993367     2.115957 -0.0006598575     18160.72
        8987    0.9991941     2.115305 -0.000635305     18162.89
        8988    0.9992207     2.114718 -0.0005183385     18165.07
        8989    0.9992125      2.11408  -0.00052019     18166.97
        8990    0.9992558     2.113884 -0.000493943     18169.82
        8991     0.999503     2.113224 -0.000534738     18171.14
        8992    0.9996022     2.112742 -0.0006219975     18171.63
        8993     0.999453     2.111941 -0.000553987     18172.99
        8994    0.9992976     2.111396 -0.000587821     18174.72
        8995    0.9992208     2.111008 -0.0005551595     18177.14
        8996    0.9991329     2.110391 -0.000541552     18180.01
        8997    0.9990393      2.10972 -0.000554133     18182.68
        8998    0.9990382      2.10923 -0.000532827     18184.92
        8999    0.9991444     2.108792 -0.000581256     18186.92
        9000    0.9990508      2.10826 -0.000487464     18188.97
        9001    0.9987671     2.107395 -0.0005297455     18191.03
        9002    0.9983332      2.10728 -0.0006024175     18193.99
        9003    0.9982206     2.106673 -0.0004733115     18196.96
        9004     0.998399      2.10585 -0.0005399055     18200.29
        9005    0.9984899     2.105502 -0.000495345     18202.91
        9006    0.9985962      2.10512 -0.0004183945     18205.19
        9007    0.9986127     2.104691 -0.0004016545     18207.82
        9008    0.9985562     2.104177 -0.0004903865     18211.16
        9009    0.9984593     2.103895 -0.0005025475     18213.28
        9010    0.9983628     2.103159 -0.000429485     18214.25
        9011    0.9984223     2.102681 -0.0005205075     18215.83
        9012    0.9982565     2.102459 -0.0003970485     18217.17
        9013    0.9981629     2.101813 -0.0003530865     18219.24
        9014    0.9980826     2.101571 -0.000423657     18222.28
        9015    0.9982647     2.101269  -0.00034416     18224.38
        9016    0.9985693     2.100764 -0.000480765      18227.4
        9017    0.9984636     2.100437 -0.000456004     18229.11
        9018    0.9982663     2.099648 -0.000432511     18231.22
        9019    0.9979197     2.099445 -0.0005293265     18234.49
        9020    0.9974479     2.099034 -0.000505041     18238.05
        9021     0.997434     2.098319 -0.0005338055     18240.96
        9022    0.9975643     2.097627 -0.0005625515     18243.33
        9023    0.9976131      2.09731 -0.0005435485      18246.1
        9024    0.9976509     2.096784 -0.000578186     18249.31
        9025    0.9976737     2.096145 -0.000588481     18250.71
        9026    0.9978171     2.095315 -0.000692518        18252
        9027    0.9976087     2.094956 -0.000700771     18255.41
        9028    0.9972807     2.094014 -0.000649694        18258
        9029    0.9970927     2.093342 -0.0007261045     18261.59
        9030    0.9970169     2.092716 -0.000719903     18264.19
        9031    0.9968876     2.092051 -0.0006761675     18265.98
        9032    0.9970329     2.091134 -0.0006995175     18267.96
        9033    0.9972809     2.090637 -0.000800385     18268.92
        9034    0.9977097     2.089918 -0.000716539     18270.34
        9035    0.9980327      2.08885 -0.000804653     18273.95
        9036    0.9979185     2.088268 -0.000830768      18276.8
        9037    0.9980201     2.087419 -0.0006980305     18279.39
        9038    0.9982259     2.086595 -0.0007739925     18280.17
        9039    0.9984602     2.086058  -0.00070939     18280.96
        9040    0.9986311     2.085172 -0.0007099605     18281.84
        9041    0.9987727     2.084581 -0.0007389995     18283.48
        9042    0.9987234     2.083755 -0.0007644855     18284.94
        9043    0.9986647     2.083102 -0.0008126185      18287.2
        9044    0.9988784     2.082114 -0.0007394155     18290.73
        9045    0.9991112     2.081331 -0.0008493765     18294.56
        9046    0.9994429     2.080797 -0.0008188715      18297.6
        9047    0.9998354     2.079704 -0.0008667855     18299.29
        9048      1.00025     2.078838 -0.0009689705        18302
        9049     1.000421     2.077864 -0.000828344     18303.48
        9050     1.000502     2.076921 -0.0009094525     18304.06
        9051     1.000472     2.076391 -0.000946243     18305.74
        9052     1.000357     2.075201 -0.0008717935     18308.83
        9053     1.000147     2.074079 -0.000976412     18311.11
        9054     1.000053     2.073434 -0.0009193095     18313.94
        9055     1.000189     2.072485 -0.000873987     18316.91
        9056     1.000319     2.071523 -0.0008773715     18318.04
        9057     1.000137     2.070583 -0.000866738     18318.93
        9058    0.9997839     2.069925 -0.000864522     18319.26
        9059    0.9996821     2.069018 -0.0008224875     18320.93
        9060    0.9995532     2.068065 -0.0009096535     18322.89
        9061     0.999536     2.067293 -0.000932126     18323.99
        9062    0.9994085     2.066286 -0.000920011     18324.16
        9063    0.9996835      2.06529 -0.0008985995     18325.55
        9064     1.000258     2.064385 -0.000885618     18327.24
        9065     1.000837     2.063698 -0.0008307215     18329.51
        9066     1.001536     2.062744 -0.000765184     18332.26
        9067     1.002162     2.061967 -0.0007786595      18334.3
        9068      1.00296     2.061325 -0.0007058135      18336.6
        9069     1.003515     2.060584 -0.000758382     18338.67
        9070     1.004277      2.05992 -0.0007539385     18342.45
        9071      1.00469     2.058933 -0.0007717725     18344.63
        9072     1.004553     2.058309 -0.0007713105     18346.71
        9073     1.004244     2.057497 -0.000760068     18348.76
        9074     1.003872     2.056835 -0.0008129195     18351.34
        9075     1.003722     2.055893 -0.0008111655     18353.46
        9076     1.003352     2.055057 -0.000825373     18354.91
        9077     1.003184     2.054252 -0.000818341     18357.07
        9078     1.002839     2.053534 -0.0008751175     18359.09
        9079     1.002702      2.05262 -0.0008233675     18359.96
        9080     1.003231     2.051557 -0.000890406     18361.98
        9081     1.003642     2.050958 -0.0007958945     18362.94
        9082     1.003636     2.049972 -0.0007850535     18361.83
        9083     1.003742     2.049436 -0.0008117265     18361.52
        9084     1.003949     2.048416 -0.0007941125     18357.66
        9085     1.004112     2.047711 -0.0008533095     18343.19
        9086     1.004094     2.046796 -0.0008270985     18319.07
        9087     1.004097     2.046023 -0.0008133545        18301
        9088     1.004341     2.045108 -0.0008104615     18293.23
        9089     1.004288     2.044458 -0.000761411        18286
        9090     1.004243     2.043554 -0.0007849265     18261.23
        9091     1.004085     2.042977 -0.0008852119     18211.16
        9092      1.00399     2.041968 -0.000657801     18165.59
        9093     1.004491     2.040917 -0.0007156625     18078.55
        9094     1.002384     2.040923  -0.00084794     18058.79
        9095     1.002024     2.040114 -0.0007385645     18212.55
        9096       1.0038     2.038577 -0.0008288045     18239.52
        9097      1.00461     2.037963 -0.000778997     18120.41
        9098     1.002615     2.037607 -0.000683656     18101.81
        9099     1.002247     2.036998 -0.0006966475     18206.82
        9100     1.002917     2.035842 -0.0007807875     18287.67
        9101      1.00302     2.035176 -0.000845491     18307.73
        9102     1.002766     2.034484 -0.000773884     18329.93
        9103     1.002453     2.033617 -0.000780458     18349.51
        9104     1.002266     2.032746 -0.0007998245     18360.17
        9105     1.002046     2.032055 -0.000794353     18367.98
        9106     1.001826     2.031285 -0.000800145     18378.87
        9107     1.001513     2.030439 -0.000774201     18395.85
        9108     1.001332     2.029546 -0.000785137      18413.2
        9109      1.00115     2.028958 -0.0008022455     18422.64
        9110     1.001254     2.028144 -0.000747353     18428.39
        9111      1.00145      2.02723 -0.000785451     18432.47
        9112     1.001866     2.026556 -0.0007807335     18435.41
        9113      1.00244     2.025816 -0.000777543     18437.83
        9114      1.00333     2.025021 -0.0008068865     18441.49
        9115     1.004188      2.02412 -0.0008182205     18445.32
        9116     1.004431     2.023329 -0.000816058     18449.37
        9117     1.004047     2.022543 -0.0007929335     18453.42
        9118     1.003498     2.021757 -0.0007518345     18455.73
        9119     1.003252     2.020948 -0.000710145     18457.87
        9120     1.003191     2.020322 -0.0007426835     18458.42
        9121     1.003373     2.019702 -0.0007632895     18459.49
        9122     1.003536     2.018786 -0.0007132765     18460.52
        9123     1.003797     2.017895 -0.0007789975     18461.31
        9124      1.00423     2.017468 -0.000732977     18462.55
        9125     1.004926     2.016586 -0.000609471     18466.46
        9126     1.005289     2.015855 -0.0007390715     18469.95
        9127     1.005246     2.015457 -0.0006655275     18472.42
        9128     1.005116     2.014512 -0.0006066035      18474.5
        9129     1.004979     2.013924 -0.000690076     18476.72
        9130     1.005162     2.013428 -0.000634311      18479.1
        9131     1.005393     2.012697 -0.0006450115     18480.57
        9132     1.005407     2.011975 -0.000687913     18481.38
        9133     1.005366     2.011344 -0.0006345005     18482.69
        9134     1.005738     2.010677 -0.0005672105     18485.51
        9135     1.006403     2.010159 -0.000545401     18487.48
        9136     1.007871     2.009706 -0.0005624565     18489.24
        9137     1.008926     2.009163 -0.0006279875     18488.43
        9138     1.009055     2.008427  -0.00059772     18489.24
        9139     1.008474     2.007647 -0.000574651     18490.25
        9140     1.007513     2.007315 -0.0005284275     18491.58
        9141     1.006929     2.006864 -0.000470049     18493.71
        9142      1.00748     2.006313 -0.000530487     18497.38
        9143     1.007939     2.005767  -0.00050943     18500.93
        9144     1.007474     2.005193 -0.0005128685     18502.11
        9145     1.006937     2.004826 -0.000522344     18504.75
        9146     1.006327     2.004261 -0.000533665     18507.31
        9147     1.005085     2.003677 -0.000541167        18508
        9148     1.004039     2.003059 -0.000541608     18509.89
        9149     1.002619     2.002662 -0.0005310955     18510.58
        9150      1.00155     2.002095 -0.0004907585     18511.78
        9151     1.001051     2.001553 -0.000517719     18512.96
        9152     1.000966     2.001096 -0.0004901025      18513.6
        9153     1.000904     2.000591 -0.0005170025     18514.66
        9154      1.00072     2.000135 -0.0005885305     18517.21
        9155     1.000519     1.999485 -0.0006209785     18519.25
        9156     1.000484     1.998741 -0.000609857     18520.62
        9157     1.000607     1.998107 -0.000594067     18521.66
        9158     1.000656     1.997695 -0.0005561355     18523.65
        9159     1.000403     1.997109 -0.0005520495        18526
        9160     1.000113     1.996517 -0.000613349     18528.55
        9161     1.000169     1.995899 -0.0005858625      18531.3
        9162     1.000565     1.995242 -0.000584829        18534
        9163      1.00106     1.994765 -0.0005946065     18536.51
        9164     1.001128     1.994178 -0.0005698995     18539.21
        9165     1.000938      1.99352 -0.000619334     18541.45
        9166     1.001041     1.992962 -0.0006147545     18542.63
        9167     1.000934     1.992288 -0.0006255585     18544.58
        9168     1.001026     1.991719   -0.0006828     18547.83
        9169     1.001329     1.991018 -0.0007093225     18550.17
        9170     1.002045     1.990231 -0.0007435195      18553.1
        9171     1.002635     1.989451 -0.0007202885     18554.68
        9172     1.003156     1.988744 -0.0006713995     18555.52
        9173     1.003613     1.988137 -0.0006832685     18555.66
        9174      1.00381     1.987545 -0.0006581475     18555.55
        9175     1.003873     1.986718 -0.000657191     18557.26
        9176     1.003749     1.986112 -0.0007403775     18558.58
        9177      1.00363     1.985508 -0.0006921225     18558.61
        9178     1.003498     1.984584 -0.0007269305     18558.43
        9179     1.003383     1.983949 -0.0007794385     18558.38
        9180      1.00383     1.983204 -0.000663835     18560.45
        9181      1.00418      1.98239 -0.000713689     18561.95
        9182     1.004179     1.981929 -0.0006598245     18562.94
        9183     1.003987     1.981094 -0.0006401865      18563.3
        9184     1.003865     1.980565 -0.000677448     18563.77
        9185     1.003754      1.97983 -0.000594916     18565.81
        9186     1.003758     1.979219 -0.0006124425     18567.38
        9187     1.003815     1.978715 -0.0006153955      18569.3
        9188     1.003861     1.978115 -0.000655575     18570.97
        9189     1.004033     1.977368 -0.000697201     18571.62
        9190     1.004296     1.976596 -0.0006577225     18571.57
        9191     1.004227     1.975926 -0.0005763155      18573.3
        9192     1.004094     1.975484 -0.000610581     18575.84
        9193     1.003875     1.975063 -0.000600418      18578.4
        9194      1.00417     1.974154 -0.000648526     18579.98
        9195     1.004805     1.973524 -0.0006391375     18580.62
        9196     1.005016      1.97289 -0.000540124     18580.64
        9197     1.004876     1.972506 -0.0005820055     18581.52
        9198     1.004732     1.971994 -0.0006040425     18582.66
        9199     1.004538     1.971196 -0.000689639     18583.94
        9200     1.004378     1.970474 -0.000672287     18586.73
        9201     1.004497     1.969748 -0.000639892     18588.11
        9202     1.004678     1.969305 -0.000604375     18588.93
        9203      1.00489     1.968637 -0.0006431785     18590.57
        9204     1.005106     1.968056 -0.000717704     18591.88
        9205     1.005333     1.967175 -0.000709716     18593.03
        9206     1.005291     1.966434  -0.00071587     18593.86
        9207     1.005179     1.965798 -0.000629413     18595.04
        9208     1.004587     1.965193 -0.0006165245     18596.17
        9209     1.003989     1.964657 -0.0006564955     18599.58
        9210     1.003957     1.963968 -0.000683823     18602.64
        9211     1.004003     1.963172   -0.0007219     18604.88
        9212     1.003942     1.962458 -0.0007560025     18606.26
        9213     1.004324      1.96177 -0.000638982     18608.47
        9214     1.004502     1.960944 -0.0007069355     18609.69
        9215     1.004263     1.960616 -0.0007463875     18610.52
        9216     1.004022      1.95963 -0.0006748315     18612.06
        9217     1.003788     1.958784 -0.0007614675     18613.97
        9218     1.003679     1.958244 -0.000729864     18615.92
        9219     1.003341      1.95757 -0.0006827225     18615.86
        9220     1.002952      1.95671 -0.000740628     18616.33
        9221     1.002842     1.956053 -0.0007830095     18617.36
        9222      1.00283     1.955282 -0.0007459125     18619.05
        9223     1.003047     1.954438 -0.0007694365     18621.92
        9224        1.003     1.953727 -0.000721536     18622.35
        9225     1.003189     1.952976 -0.000709124      18623.6
        9226     1.003484     1.952396 -0.0007107255     18626.19
        9227     1.003946     1.951601 -0.000712894     18628.31
        9228     1.004138     1.950884 -0.0007473565     18630.78
        9229     1.003755     1.950124 -0.0006992515     18632.25
        9230     1.003499     1.949406 -0.0007200145      18632.9
        9231     1.003376     1.948804 -0.0007111135     18633.36
        9232     1.003158     1.948004 -0.0007381445     18633.35
        9233     1.002746      1.94728 -0.0008052705      18633.2
        9234     1.002381     1.946454 -0.0007126065     18634.07
        9235     1.002133     1.945583 -0.0006705065     18634.31
        9236     1.001821     1.945153 -0.000684694     18635.53
        9237     1.001505     1.944598 -0.0006285275     18637.49
        9238     1.001088     1.943715 -0.000712245      18637.9
        9239      1.00082     1.943069 -0.0007435155     18638.67
        9240     1.000402     1.942304 -0.0007019215     18639.99
        9241     1.000257     1.941623 -0.0006928155     18642.11
        9242     1.000198     1.940907 -0.000682249     18642.86
        9243     1.000039     1.940298 -0.000694563     18643.07
        9244    0.9999274     1.939575 -0.000705597     18642.84
        9245    0.9995409     1.938845 -0.000728828     18641.33
        9246    0.9992757     1.938085 -0.0007060375      18640.1
        9247    0.9993664     1.937383 -0.0007586885     18637.14
        9248    0.9997045     1.936751 -0.0007876855      18627.5
        9249     1.000155      1.93581 -0.000712583     18587.48
        9250     1.000582     1.934934 -0.0006545435     18476.91
        9251    0.9993144     1.934532 -0.000653071     18405.64
        9252    0.9987555     1.934133 -0.0006583155     18515.84
        9253    0.9994792     1.933198 -0.0006005475      18583.8
        9254     1.000387     1.932301 -0.000628854     18518.11
        9255    0.9994214      1.93213 -0.0007256785     18426.76
        9256    0.9985504     1.931618 -0.0006110155     18513.25
        9257    0.9987286     1.930295 -0.000719966     18615.05
        9258    0.9991286     1.929857 -0.0007705819     18661.81
        9259    0.9994881      1.92925 -0.000581439     18672.29
        9260    0.9994799     1.928535 -0.0006885295     18675.61
        9261    0.9991114      1.92797 -0.000685004     18678.15
        9262    0.9989199     1.927103 -0.0006682495     18681.17
        9263      0.99909      1.92651 -0.0006870305     18683.37
        9264    0.9991707     1.925862 -0.0006393255     18684.61
        9265    0.9992136     1.925222 -0.0006571305     18685.32
        9266    0.9988749     1.924545 -0.000690667        18685
        9267    0.9987002     1.923882 -0.0006791115     18684.46
        9268    0.9986626       1.9231 -0.0006626365     18684.81
        9269    0.9986466     1.922505 -0.0006995135     18686.89
        9270    0.9985989     1.921895 -0.0006615705      18688.3
        9271    0.9986795     1.921084 -0.0006393895      18690.2
        9272    0.9986558     1.920453 -0.000636875     18691.97
        9273     0.998922     1.919948 -0.0006418175     18695.02
        9274    0.9990673     1.919347 -0.000641289      18696.4
        9275    0.9991406     1.918516 -0.0006510595     18696.02
        9276    0.9990216     1.917888 -0.000671883     18695.07
        9277    0.9989835     1.917343 -0.000628793     18696.35
        9278    0.9989778      1.91666  -0.00064524     18699.04
        9279    0.9991527     1.916001 -0.0006802325     18701.33
        9280    0.9994096     1.915307 -0.000585888     18702.02
        9281    0.9999989     1.914622 -0.0006003425     18703.39
        9282     1.000438     1.914316 -0.0005991125     18704.81
        9283     1.000988       1.9136 -0.0005553235     18704.79
        9284     1.001182     1.912911 -0.0006252515     18704.84
        9285     1.001222     1.912401 -0.0006076575     18706.83
        9286      1.00116     1.911815 -0.000572612     18709.22
        9287     1.001096     1.911169 -0.0006012695     18710.59
        9288     1.000928      1.91062 -0.0006349355     18711.24
        9289     1.000583     1.909996 -0.0005690495     18712.36
        9290     1.000174     1.909275 -0.000565234      18711.9
        9291    0.9999815     1.908893 -0.0005427855     18712.99
        9292     1.000131     1.908359 -0.0005205615     18713.87
        9293     1.000158     1.907825 -0.000600205      18715.5
        9294    0.9999421     1.907193 -0.0005770515     18717.14
        9295    0.9998377     1.906492 -0.0006094985     18718.58
        9296    0.9998172     1.906051    -0.000618     18719.44
        9297    0.9998572     1.905387 -0.000549118     18719.89
        9298    0.9997141     1.904721 -0.0005794725     18722.02
        9299     0.999403     1.904296  -0.00053263     18723.88
        9300    0.9992361     1.903733  -0.00055123     18726.14
        9301    0.9992651     1.903256 -0.0005709125     18727.11
        9302    0.9994583     1.902516 -0.000576476     18728.02
        9303    0.9996223     1.902012 -0.000600359     18727.62
        9304     0.999843     1.901427 -0.0005684395     18727.85
        9305    0.9998259     1.900855 -0.000554544     18727.97
        9306    0.9996069     1.900242 -0.0005707605     18729.25
        9307    0.9990187     1.899794 -0.0005340675     18730.07
        9308    0.9988667     1.899144 -0.0006016525     18731.15
        9309    0.9988941     1.898719 -0.0005874645     18732.03
        9310    0.9990968     1.897836 -0.000522527     18732.53
        9311    0.9993319     1.897444 -0.0006176555     18732.49
        9312    0.9994836     1.897054 -0.0005349955     18732.89
        9313    0.9995501     1.896248 -0.0005825435     18734.14
        9314    0.9993687     1.895696 -0.000581313     18735.26
        9315     0.999094     1.895114 -0.000539229     18736.65
        9316    0.9988713     1.894729 -0.000544585     18737.92
        9317    0.9985224     1.894091 -0.0005842875     18740.11
        9318    0.9984487     1.893518 -0.000674002     18742.28
        9319    0.9985479     1.892777 -0.000611941     18744.85
        9320    0.9984806     1.892033 -0.000614091     18743.91
        9321    0.9984841     1.891643 -0.000488333     18742.42
        9322    0.9990593     1.891061 -0.0005037165     18742.12
        9323    0.9997226     1.890823 -0.0005976515     18741.95
        9324     1.000158     1.890018 -0.0006017695     18742.47
        9325     1.000386     1.889253 -0.000714715     18744.31
        9326     1.000513     1.888654 -0.0006047355     18746.31
        9327     1.000369     1.887965 -0.0005870535     18748.03
        9328     1.000247     1.887599 -0.0006067505     18749.06
        9329     1.000451     1.886905 -0.0005171775     18750.24
        9330     1.000729     1.886227 -0.0006238455     18752.54
        9331      1.00073     1.885896 -0.000594089     18752.99
        9332     1.000656     1.885104 -0.000579477     18752.31
        9333     1.000379     1.884528 -0.000626167     18751.16
        9334     1.000248     1.883909 -0.0005772095     18751.89
        9335     1.000272     1.883391 -0.0006079195     18755.09
        9336     1.000234     1.882795 -0.0005212255     18757.85
        9337     1.000156     1.882097 -0.0005710915     18760.83
        9338    0.9999824     1.881824 -0.000635731     18761.84
        9339    0.9998975     1.881107 -0.000610114     18761.49
        9340    0.9997571     1.880252 -0.0006234105     18760.73
        9341    0.9996792     1.879656 -0.0006244985     18760.12
        9342    0.9998555     1.879331 -0.000611123     18760.48
        9343    0.9998708     1.878609 -0.0006139575     18761.03
        9344    0.9997803     1.877808 -0.0006578995     18762.23
        9345    0.9997112       1.8772 -0.0006181235     18762.43
        9346     0.999624     1.876699 -0.000618198     18763.95
        9347    0.9993881     1.876136 -0.0006081975     18764.38
        9348    0.9996491     1.875335 -0.000641708     18765.72
        9349    0.9997791     1.874767 -0.000602983     18764.66
        9350     1.000007     1.874132 -0.0005930215        18761
        9351    0.9999843     1.873724 -0.0006253335     18758.02
        9352    0.9999217     1.872963 -0.000558787     18759.91
        9353    0.9996941     1.872266 -0.0006187475     18763.08
        9354    0.9997377     1.871897 -0.000631436     18763.96
        9355    0.9998574     1.871249 -0.000623384     18766.37
        9356    0.9999808     1.870437 -0.0006746515     18770.35
        9357     1.000009     1.869773 -0.000681366     18774.15
        9358     1.000032     1.869198 -0.0005647235      18776.1
        9359     1.000116     1.868524 -0.000616382     18775.45
        9360     1.000146     1.868178 -0.000583374     18774.17
        9361     1.000357     1.867307 -0.0005654515     18772.37
        9362     1.000362     1.866865 -0.0006805145     18769.16
        9363     1.000154     1.866262 -0.0005579575     18769.07
        9364     1.000109     1.865456 -0.000594767     18771.78
        9365     1.000123     1.865075 -0.000637559     18772.31
        9366     1.000329     1.864486 -0.0005530965     18773.54
        9367     1.000648     1.863712 -0.0005964905     18777.09
        9368     1.000691     1.863244 -0.0006067085     18782.09
        9369     1.000554     1.862689 -0.000583025     18784.01
        9370     1.000708     1.862059 -0.000597941     18783.92
        9371     1.000831      1.86138 -0.0006215665     18785.63
        9372     1.001092     1.860852 -0.0006229675     18787.93
        9373     1.001163     1.860203 -0.0005807795     18788.68
        9374     1.001002     1.859567 -0.000614338     18787.84
        9375     1.001269     1.859057 -0.0006615595     18786.62
        9376     1.001534     1.858395 -0.0005396945     18786.46
        9377     1.001591     1.857557 -0.000575112      18787.4
        9378     1.001514     1.857408 -0.0005952575     18788.19
        9379     1.001457     1.856756 -0.0005435505     18790.94
        9380     1.001259     1.856013 -0.000601138     18791.41
        9381     1.001286     1.855383 -0.000577152     18791.85
        9382     1.001229     1.855004 -0.000576196     18792.56
        9383     1.001227     1.854448 -0.000563057     18793.68
        9384     1.001168     1.853709 -0.000653162     18794.45
        9385     1.001448      1.85313 -0.0006447625     18796.82
        9386     1.001661     1.852391 -0.000654108     18797.53
        9387     1.001971     1.851869 -0.0006382175     18798.03
        9388     1.002069     1.851092 -0.000584184     18798.98
        9389     1.002115     1.850577 -0.0006218375     18798.46
        9390     1.002495     1.850054 -0.000612206     18798.45
        9391     1.002935     1.849381 -0.0006081885     18796.94
        9392     1.003269     1.848643 -0.0006534705     18796.37
        9393     1.003057     1.848145 -0.0006492245     18795.54
        9394     1.002516     1.847441 -0.000622186     18795.29
        9395     1.002385     1.846784 -0.0006023925     18796.86
        9396     1.002333     1.846155 -0.000624279     18798.11
        9397     1.002089     1.845735  -0.00059393     18798.17
        9398     1.002015     1.844943 -0.000585906      18799.1
        9399     1.001956     1.844409 -0.000608501     18801.61
        9400     1.001677     1.843811 -0.000569466     18801.82
        9401     1.001638     1.843301 -0.000591844     18800.91
        9402     1.001902     1.842666 -0.0006193135     18800.68
        9403     1.002348     1.842041 -0.000644161     18802.55
        9404     1.002522     1.841334 -0.0006444525     18804.32
        9405     1.002235     1.840724 -0.0006452595     18804.68
        9406      1.00184     1.840088 -0.000575433     18806.08
        9407     1.001595      1.83946  -0.00055775     18806.94
        9408      1.00134     1.839032 -0.0005968515     18806.34
        9409      1.00131     1.838493 -0.0006293675     18806.32
        9410     1.001337       1.8377 -0.0006698965     18807.38
        9411     1.001578     1.836943 -0.0006494135     18808.53
        9412     1.001336     1.836353 -0.000630153     18808.23
        9413     1.000815     1.835896 -0.000568468     18810.13
        9414     1.000153      1.83518 -0.000609068        18811
        9415     0.999856     1.834669 -0.0006187585     18811.86
        9416    0.9998139     1.833916 -0.000624669     18812.51
        9417    0.9996654     1.833421 -0.0006201165      18811.6
        9418    0.9993623     1.832681  -0.00059582      18809.5
        9419    0.9989995     1.832188 -0.0006567215     18809.09
        9420     0.998856     1.831533 -0.000609959     18808.41
        9421    0.9988349     1.830794 -0.000601873     18807.36
        9422    0.9988802     1.830241 -0.000564188     18807.22
        9423    0.9986119     1.829781 -0.0005700775      18806.8
        9424    0.9982157     1.829276 -0.000576729     18806.74
        9425    0.9982068     1.828514 -0.000653855     18806.75
        9426    0.9983501     1.827934 -0.0006593875      18806.8
        9427    0.9985019     1.827165 -0.0006324845     18807.33
        9428    0.9983864     1.826639 -0.0006673935     18807.46
        9429    0.9980129     1.825984 -0.0006326485     18806.33
        9430    0.9978418     1.825265 -0.000651477     18806.65
        9431    0.9976992     1.824635 -0.0006589685     18806.67
        9432    0.9975585     1.824033 -0.0006167655     18807.71
        9433    0.9974319     1.823348 -0.0005981205     18807.99
        9434     0.997401     1.822798 -0.000585663     18808.86
        9435     0.997451     1.822242 -0.0005496095     18808.84
        9436    0.9973631      1.82169 -0.0005876585     18808.38
        9437    0.9972645     1.821149 -0.000600559     18808.71
        9438    0.9972194     1.820447 -0.0005901575     18809.08
        9439    0.9973365      1.81984 -0.000633953     18809.01
        9440    0.9973873     1.819329 -0.0006210555     18808.18
        9441    0.9975495     1.818614 -0.0005451235     18808.47
        9442    0.9979396     1.817963 -0.000627739      18809.2
        9443    0.9975684      1.81766 -0.000546206     18807.62
        9444    0.9969592     1.816819 -0.0005481445      18807.2
        9445    0.9963425     1.816429 -0.000649964     18807.15
        9446    0.9961609      1.81577 -0.000618561     18807.67
        9447    0.9961143      1.81506 -0.0006423575     18808.18
        9448    0.9959145     1.814344 -0.000641223     18808.59
        9449    0.9955535     1.813859 -0.000615275     18809.19
        9450    0.9954175     1.813205 -0.0005947705     18807.68
        9451    0.9953184     1.812599 -0.0005976645     18807.03
        9452    0.9954796     1.811965 -0.0005515965     18806.38
        9453    0.9957389     1.811469 -0.0005916095     18806.21
        9454    0.9958298     1.810999 -0.000603056      18805.4
        9455    0.9960183     1.810232 -0.000597746     18805.61
        9456    0.9961056     1.809553  -0.00059865     18804.89
        9457     0.996323     1.809078 -0.0005522345     18804.24
        9458    0.9967367     1.808604 -0.0005226895     18803.32
        9459    0.9969247     1.808023 -0.0005456805     18802.42
        9460    0.9970118     1.807462 -0.0005970935     18802.61
        9461    0.9972832     1.806895 -0.000632768     18804.45
        9462    0.9976124     1.806216 -0.0006101825     18806.08
        9463    0.9975033     1.805492 -0.000577675     18807.26
        9464    0.9974803     1.805021 -0.0005387345     18808.43
        9465    0.9973303     1.804584 -0.0005323085      18809.2
        9466    0.9971382     1.804061 -0.000553461     18809.66
        9467    0.9970322     1.803363 -0.0005269965     18810.33
        9468    0.9967334     1.802808 -0.000534387      18810.1
        9469    0.9964081     1.802476 -0.0004834005     18809.73
        9470    0.9961786     1.801924 -0.0005422375     18809.82
        9471    0.9960034     1.801429 -0.0006106435     18809.79
        9472    0.9959368     1.800639 -0.0005920445     18808.73
        9473     0.996071     1.800034 -0.000602417      18806.6
        9474    0.9963774     1.799555 -0.0005304325     18805.34
        9475    0.9963977      1.79902 -0.0005370915     18804.03
        9476    0.9966272     1.798517 -0.0005922485     18803.93
        9477    0.9970155     1.797885 -0.0005213525     18804.34
        9478    0.9972771     1.797186 -0.000569934     18803.92
        9479    0.9973236     1.796934 -0.0005159565      18803.6
        9480    0.9976756     1.796237 -0.000498269     18803.92
        9481    0.9980598     1.795821 -0.000593108     18804.37
        9482    0.9982404     1.795193 -0.000581759     18802.27
        9483    0.9984128     1.794562 -0.000584928     18798.56
        9484    0.9983811      1.79391 -0.000570015     18790.24
        9485    0.9981744     1.793482 -0.0005252255     18770.89
        9486    0.9984215     1.792913 -0.000519265     18761.77
        9487    0.9989279     1.792461 -0.0005515245     18767.88
        9488    0.9990448     1.791833 -0.0005585565     18777.48
        9489    0.9987759     1.791276 -0.0005731525     18785.96
        9490    0.9987694     1.790679 -0.000543108     18788.05
        9491    0.9986944     1.790168 -0.000563626     18778.68
        9492    0.9987894     1.789661 -0.000547685     18761.48
        9493     0.999046     1.789021 -0.000594921     18759.18
        9494    0.9991608     1.788488 -0.0005908975     18766.87
        9495    0.9986561     1.787789 -0.000544672     18777.56
        9496    0.9981422     1.787297 -0.0005436575     18786.15
        9497    0.9978554     1.786842 -0.0005627755     18788.19
        9498    0.9978093     1.786314 -0.000612852     18787.84
        9499    0.9979155     1.785538 -0.000698202     18787.42
        9500    0.9979155     1.785538 -0.000698202     18787.42
