# This file has been produced by extranormal (v 1.0.1 - February 23, 2017)
# O. Roudenko - Synchrotron SOLEIL. Covered by GPL licence.
#Data from HDF File: /nfs/ruche-rock/rock-soleil/com-rock/2022/Projets/20220725_Gilles/op6_cell4_alone/op6_cell4_pos1_close/op6_cell4_pos1_close_0024/op6_cell4_pos1_close_0024_17089.nxs to op6_cell4_pos1_close_0024_17112.nxs
#Time at start=2022-07-28 21:56:37.659
#Time from start (seconds)=64.9565307096
#Sample temperature (C)=nan
# Normalization -------------
# pivot spectrum: LNO_pristine_av1100_00001.txt
# E0=8332.88   Eshift=-0.314857997517
# E0_pivot = 8349.6
# pre-edge params: from E0_pivot-240.0 to E0_pivot-50.0
# pre-edge range: [8109.6, 8299.6]
# post-edge params: from E0_pivot+70.0 to E0_pivot+1155.0
# post-edge range: [8419.6, 9500.0]
# I jump at E0_pivot = 0.799288483995
# shifted energy	normalized	reference	ref.derivative	I0
        8060  0.002618586     1.044177 -0.0005053571     14936.58
        8065  0.003251722     1.041661 -0.0004701989      14957.4
        8070  0.002189913     1.039477 -0.0004544146     14981.29
        8075 0.0005363956     1.037152 -0.0004434987     15005.17
        8080  0.001500666     1.035088 -0.0004510131     15026.41
        8085   0.00197036     1.032791 -0.0004474434     15045.98
        8090  0.001434502     1.030457 -0.000461999     15068.54
        8095  0.002485328     1.028203 -0.0004554922     15092.22
        8100  0.001811793     1.025848 -0.0004435709     15115.15
        8105 0.0008386749     1.023682 -0.0004431003     15138.15
        8110 0.0004315882     1.021585 -0.0004162558     15157.32
        8115 -0.0002399752     1.019341 -0.0004243366     15175.99
        8120 -0.0006280816     1.017523 -0.0004290226     15196.81
        8125 -0.0001512789     1.015195 -0.0004103872     15217.94
        8130 0.0006010522     1.013005 -0.0004305295     15240.42
        8135  0.001674721     1.011133 -0.0004116048     15261.56
        8140 0.0005754669     1.008913 -0.0004030869     15280.28
        8145 -0.000772858     1.006963 -0.0004169185      15302.5
        8150 -0.000466575     1.004943 -0.000412752     15320.85
        8155 -0.001570979     1.002795 -0.0004140689     15343.11
        8160 -0.0008263482     1.000658 -0.000429085     15362.78
        8165 -0.0009451134    0.9986814 -0.0004315984     15390.08
        8170   0.00157328    0.9963614 -0.0004292459     15408.64
        8175  0.001011665     0.994163 -0.000436802     15431.15
        8180  0.001323353    0.9920728 -0.0004265509     15450.57
        8185 0.0008191764    0.9899454 -0.0004169061     15471.55
        8190 0.0002287564    0.9878303 -0.0004036405     15494.24
        8195 0.0002354799    0.9858249 -0.0004083919     15515.76
        8200 -0.0004568508        0.984 -0.0004006728     15532.86
        8205 -2.610855e-05    0.9817775 -0.0004050372     15556.22
        8210 -0.0001688268    0.9798169 -0.0004264632     15573.02
        8215 -0.001047807    0.9777241 -0.0004080279     15594.06
        8220 -0.001112903    0.9754707 -0.0004127752     15617.27
        8225 -0.001220008     0.973617 -0.0004066701     15639.51
        8230 -0.0006921051    0.9715614 -0.0003883077     15659.69
        8235 -0.0003782687    0.9695907 -0.0003931384     15676.78
        8240 0.0001795686    0.9677046 -0.0003905668     15698.93
        8245 0.0008744857    0.9657542 -0.0003818435      15720.5
        8250 0.0003843133      0.96375 -0.0003775688     15739.37
        8255 -0.0005116415    0.9619538 -0.0003692312     15758.09
        8260 -0.0004971836    0.9601532 -0.0003582662     15777.02
        8265 0.0002779822    0.9583696 -0.0003577241      15798.4
        8270 0.0001294894    0.9565847 -0.0003432481     15819.87
        8275 0.0001422499    0.9547994 -0.0003384343     15836.03
        8280 -0.0002337697    0.9532882 -0.0003278417     15855.56
        8285 0.0001355351    0.9516009 -0.0003080663     15867.13
        8290 0.0004346093    0.9500279 -0.0002913077     15880.34
        8295  0.001073031     0.948638 -0.0002695928     15889.77
        8300  0.003120373    0.9475833 -0.000125506     15820.01
      8300.2  0.003118013    0.9475499 -9.164234e-05     15810.16
      8300.4  0.003137557    0.9475051 -0.0001158626     15801.45
      8300.6  0.003111604     0.947488 -5.426811e-05      15794.1
      8300.8  0.003096864    0.9474906 -3.224854e-05     15788.43
        8301  0.003085578    0.9475065 -0.0001424643     15784.43
      8301.2  0.003014836    0.9474793 -0.0002657617     15781.27
      8301.4  0.002972313    0.9473741 -0.0003655727     15779.16
      8301.6  0.003020511     0.947278 -0.0004553113     15778.03
      8301.8  0.003059609    0.9472141 -0.0004974329     15776.59
        8302   0.00311857     0.947115 -0.0005619076     15775.82
      8302.2    0.0032258    0.9469761 -0.0006302548     15774.89
      8302.4  0.003458089    0.9468285 -0.0006611313     15774.02
      8302.6  0.003571911    0.9467099 -0.0006111122     15772.12
      8302.8  0.003602253    0.9465861 -0.0005178342        15769
        8303  0.003726825    0.9464872 -0.0003608198     15765.55
      8303.2   0.00384315    0.9464142 -9.505262e-05     15761.16
      8303.4  0.003934745    0.9464212 0.0001710525     15754.88
      8303.6  0.004027001    0.9465101 0.0002468549     15746.54
      8303.8  0.004186489    0.9466241 0.0001708725     15736.41
        8304  0.004405052    0.9466117 -6.268395e-05     15723.25
      8304.2  0.004664413    0.9465579 -0.0002818054     15705.63
      8304.4   0.00506883    0.9464599 -0.0003192906     15683.12
      8304.6  0.005567269    0.9463986 -0.0004170563      15654.2
      8304.8  0.006141323    0.9463563 -0.000513333     15616.39
        8305   0.00675787    0.9462243 -0.0005748434     15568.06
      8305.2  0.007385521    0.9460493 -0.0005714192      15509.1
      8305.4  0.007937358    0.9459388 -0.0003646303     15439.68
      8305.6  0.008230782    0.9458992 -5.087615e-06     15364.74
      8305.8  0.008220486    0.9459325 0.0002210331     15290.22
        8306  0.008000577    0.9460452 0.0003510657     15222.74
      8306.2  0.007562385    0.9461156 0.0005954517     15167.92
      8306.4  0.006954368      0.94618 0.0006601889     15129.53
      8306.6  0.006236799    0.9464089 0.0007140672     15110.17
      8306.8  0.005511168    0.9465733  0.000710738     15111.27
        8307  0.004882048    0.9466868 0.0004778173     15129.89
      8307.2  0.004418429    0.9467486 0.0003675601      15161.5
      8307.4  0.004005721    0.9467912 0.0003322912      15203.5
      8307.6  0.003599901    0.9468674 0.0004832428     15253.24
      8307.8   0.00326567    0.9469527 0.0005512605     15308.47
        8308  0.002977345    0.9471352 0.0004914002     15367.74
      8308.2  0.002696134    0.9472322 0.0004292465     15429.37
      8308.4  0.002490126    0.9472605 0.0001049522     15494.26
      8308.6  0.002406998    0.9472961 -0.0001239782     15561.43
      8308.8  0.002493225    0.9472192 -0.0003165746     15626.48
        8309  0.002752358     0.947133 -0.0006709007     15684.92
      8309.2  0.003155548    0.9470072 -0.0008350646     15734.03
      8309.4  0.003601125    0.9467594 -0.0009346809     15770.88
      8309.6   0.00413269    0.9465511 -0.000842085     15794.47
      8309.8  0.004687251    0.9463852 -0.0005141482     15805.61
        8310   0.00508104    0.9463336 -0.000185221     15806.61
      8310.2   0.00521293     0.946348 0.0001564181     15800.72
      8310.4  0.005139568    0.9464029 0.0002261089     15792.88
      8310.6  0.005076345    0.9465104 9.134808e-05     15787.34
      8310.8  0.005062731    0.9465145 -0.0001372375     15785.47
        8311  0.005059533    0.9464211 -0.0005324801     15788.18
      8311.2  0.005187435    0.9462931 -0.0007600738     15794.61
      8311.4  0.005504266    0.9460844 -0.0006999527     15801.08
      8311.6   0.00604202    0.9459064 -0.0004778457     15801.76
      8311.8  0.006515192    0.9458611 -0.0001289915     15794.44
        8312  0.006772809    0.9459109  0.000220219     15781.89
      8312.2  0.006950481    0.9459812 0.0005111107     15767.62
      8312.4  0.006978217    0.9460826 0.0007489302     15753.46
      8312.6  0.006882675      0.94627 0.0007423404     15741.28
      8312.8  0.006818888      0.94651 0.0005108147     15732.02
        8313  0.006969596    0.9465751 9.794274e-05     15723.97
      8313.2   0.00750187    0.9464912 -0.0004878511     15711.54
      8313.4  0.008261794    0.9463484 -0.0008334577     15688.31
      8313.6  0.009028179    0.9461197 -0.0009540855     15648.13
      8313.8  0.009857188    0.9459083 -0.0008719788     15590.15
        8314   0.01059851     0.945728 -0.0005174316     15518.46
      8314.2   0.01106415    0.9456508  4.15876e-05     15438.01
      8314.4    0.0112331    0.9457058  0.000765365     15356.66
      8314.6   0.01104751    0.9459416  0.001247908     15283.01
      8314.8    0.0105827    0.9463403  0.001511239     15223.22
        8315  0.009976011    0.9466491  0.001579768     15183.47
      8315.2  0.009297061    0.9469148  0.001370423     15167.28
      8315.4  0.008661926    0.9472054  0.001151644     15171.68
      8315.6  0.008192332    0.9474366  0.000924841     15192.97
      8315.8  0.007877314    0.9475704 0.0007032739     15226.18
        8316  0.007688919    0.9476546 0.0005522726      15265.6
      8316.2  0.007592008     0.947768  0.000499503     15307.69
      8316.4  0.007528675    0.9478784 0.0005644675     15350.87
      8316.6  0.007478597    0.9479701 0.0005334192     15395.34
      8316.8  0.007334806    0.9481062  0.000529025     15440.76
        8317   0.00711483    0.9481947 0.0005579697     15486.56
      8317.2   0.00692412    0.9483016 0.0004827026     15532.59
      8317.4  0.006834118    0.9484164 0.0004674001      15579.2
      8317.6  0.006773808    0.9484924 0.0004221837     15625.63
      8317.8  0.006737493    0.9485687 0.0003289979     15669.74
        8318   0.00687825    0.9486394 0.0002296279      15709.8
      8318.2   0.00711481    0.9486796 0.0001084307     15745.16
      8318.4  0.007342813    0.9486761  1.06313e-05     15774.81
      8318.6  0.007545525    0.9486554 -2.70247e-05      15799.4
      8318.8  0.007728815    0.9486479 4.980116e-05     15820.32
        8319   0.00785951     0.948658 0.0002762222     15837.65
      8319.2   0.00797928    0.9487159 0.0004938782     15852.07
      8319.4  0.008042056    0.9488764 0.0007145166     15864.34
      8319.6  0.008075077     0.949043 0.0008193831     15875.04
      8319.8  0.008092435    0.9492296 0.0008383286     15884.17
        8320  0.008253382    0.9493714 0.0007879446      15892.6
      8320.2  0.008455217    0.9495471 0.0007135464     15900.48
      8320.4  0.008610807    0.9496733 0.0007949986     15907.41
      8320.6  0.008721392    0.9498005 0.0008867379     15913.27
      8320.8  0.008835047    0.9500074   0.00102019     15918.73
        8321   0.00888779    0.9502564  0.001162692     15923.73
      8321.2  0.008954164    0.9504895  0.001175297     15928.48
      8321.4  0.009028103    0.9507306  0.001125969     15933.16
      8321.6   0.00909772    0.9509477  0.001197057     15937.76
      8321.8  0.009242467    0.9511572  0.001222709     15943.11
        8322  0.009334749    0.9514471  0.001270271      15948.6
      8322.2  0.009371701    0.9517088  0.001402723     15953.84
      8322.4  0.009430269    0.9519639  0.001530547     15959.52
      8322.6  0.009424761    0.9522794  0.001705573     15965.61
      8322.8  0.009378539    0.9526716  0.001732715      15972.2
        8323  0.009312243    0.9530732  0.001643468     15979.38
      8323.2  0.009337005    0.9533501  0.001543633      15987.4
      8323.4  0.009306761    0.9535942  0.001503517     15994.92
      8323.6   0.00935037    0.9539065  0.001752553      16002.9
      8323.8  0.009465859     0.954276  0.001963985     16011.01
        8324  0.009555421    0.9547521  0.001964025     16018.19
      8324.2  0.009639669    0.9551654  0.001871819     16024.24
      8324.4  0.009746094    0.9554777  0.001786053     16029.34
      8324.6  0.009984816    0.9557735  0.001869111     16033.91
      8324.8   0.01019038    0.9561809  0.002095617     16037.48
        8325   0.01034823    0.9566606  0.002404856      16040.5
      8325.2   0.01055959    0.9571542  0.002684098     16043.09
      8325.4   0.01064519    0.9576974  0.002868519     16044.31
      8325.6   0.01066069    0.9583282  0.003170235     16045.17
      8325.8   0.01078573    0.9589555  0.003547277      16046.4
        8326   0.01091738    0.9596904  0.003799905     16047.45
      8326.2   0.01107055    0.9605352  0.004139781     16048.59
      8326.4   0.01126318    0.9613681  0.004364374     16050.04
      8326.6   0.01138057    0.9622673  0.004502572     16051.13
      8326.8   0.01149722    0.9631819  0.004860712     16052.02
        8327   0.01169526    0.9641373  0.005120271     16053.18
      8327.2   0.01189135    0.9652567  0.005323468     16054.49
      8327.4   0.01213683    0.9663635  0.005621131     16055.71
      8327.6   0.01235681    0.9674407  0.005830504     16056.89
      8327.8   0.01244327    0.9686342  0.006220567     16057.33
        8328    0.0125815    0.9699211  0.006804064     16058.09
      8328.2    0.0127859      0.97134   0.00743092     16059.21
      8328.4   0.01303403    0.9728839  0.008170437     16060.39
      8328.6   0.01324005    0.9745789  0.008930396     16061.55
      8328.8   0.01343029    0.9764575  0.009646549     16062.45
        8329   0.01363086    0.9784843   0.01041179     16063.28
      8329.2   0.01382485    0.9806011   0.01141933     16064.01
      8329.4    0.0141143    0.9829083   0.01278746     16065.12
      8329.6   0.01441533    0.9855929   0.01470615     16066.13
      8329.8   0.01469841    0.9887142   0.01725173     16067.01
        8330   0.01500502    0.9923661   0.02021282     16067.92
      8330.2   0.01527257    0.9967097   0.02352344      16068.6
      8330.4   0.01562605     1.001763   0.02744132     16069.68
      8330.6   0.01606561     1.007533   0.03233514     16070.72
      8330.8   0.01664073     1.014319   0.03866119     16071.51
        8331   0.01729926     1.022578   0.04680176     16072.38
      8331.2   0.01795481     1.032692   0.05698399     16072.82
      8331.4    0.0187379     1.044974   0.06867638     16073.48
      8331.6   0.01962349     1.059906   0.08138011     16074.07
      8331.8    0.0206247     1.077519   0.09486381     16074.33
        8332    0.0217706     1.097796    0.1081034     16074.65
      8332.2   0.02321146     1.120865    0.1204109     16075.08
      8332.4   0.02492059     1.146389    0.1308827     16075.42
      8332.6   0.02686196     1.173848    0.1390287     16075.81
      8332.8   0.02896849     1.202502    0.1447903     16075.79
        8333   0.03134747     1.232088     0.147474     16075.51
      8333.2   0.03401275     1.262221    0.1474349     16075.31
      8333.4   0.03674871     1.291827    0.1454698     16074.87
      8333.6   0.03947471      1.32045    0.1420951     16074.19
      8333.8   0.04213878     1.348464    0.1382314     16073.78
        8334   0.04471368     1.375897    0.1334542     16073.54
      8334.2   0.04706026     1.402412    0.1269332      16073.5
      8334.4    0.0489923     1.427214    0.1188679     16073.66
      8334.6    0.0504861     1.450011    0.1098918     16073.81
      8334.8   0.05140995     1.470992    0.1011384     16073.41
        8335    0.0518901     1.490325   0.09296614     16073.39
      8335.2   0.05205045     1.508124   0.08476731     16073.98
      8335.4     0.051899     1.524384   0.07654718     16074.47
      8335.6   0.05155022     1.538805   0.06865986     16074.67
      8335.8   0.05122224     1.551563   0.06148135     16074.89
        8336   0.05100402     1.563052   0.05565874     16075.28
      8336.2   0.05098885     1.573569   0.05114677     16076.05
      8336.4    0.0511774     1.583332    0.0474685     16076.91
      8336.6    0.0515546     1.592481   0.04436909      16077.5
      8336.8   0.05216104     1.601027   0.04201601     16078.72
        8337   0.05292255     1.609064   0.04081776     16079.81
      8337.2   0.05389248     1.616945   0.04098567     16080.93
      8337.4   0.05508522     1.625135   0.04241727     16082.12
      8337.6   0.05643354     1.633816   0.04500221     16083.28
      8337.8    0.0579629     1.642998   0.04819834     16084.78
        8338   0.05963595     1.652947   0.05160047     16086.53
      8338.2   0.06148396     1.663693   0.05520206     16087.52
      8338.4   0.06350367     1.675096   0.05851249     16088.51
      8338.6   0.06570455      1.68716   0.06137528     16089.73
      8338.8   0.06808559     1.699757   0.06345659     16090.66
        8339   0.07065949     1.712794   0.06447888     16091.44
      8339.2   0.07353634     1.725861   0.06460935     16092.22
      8339.4   0.07666612     1.738743   0.06377757     16092.96
      8339.6   0.08009573     1.751445   0.06234796     16093.95
      8339.8   0.08382644     1.763816   0.06087338     16094.77
        8340   0.08784308      1.77574    0.0597108      16095.1
      8340.2    0.0923349     1.787441   0.05877443     16095.56
      8340.4   0.09737058     1.799213   0.05790341     16096.17
      8340.6    0.1029311     1.810835   0.05722087     16096.63
      8340.8    0.1091253     1.822062   0.05684688     16097.83
        8341    0.1159125     1.833218   0.05737793     16098.41
      8341.2    0.1235418     1.844691   0.05937705     16098.27
      8341.4    0.1322134     1.856738   0.06245394     16098.06
      8341.6    0.1421328     1.869564   0.06579588     16098.21
      8341.8    0.1532639     1.883181   0.06936738     16098.97
        8342    0.1654168     1.897327   0.07358511     16100.18
      8342.2    0.1786215     1.912232   0.07837895     16101.05
      8342.4    0.1932932     1.928432    0.0838941     16101.52
      8342.6    0.2093765     1.945884   0.08951854     16102.43
      8342.8    0.2265643     1.964443   0.09436908     16103.33
        8343    0.2443544     1.983846   0.09882688     16103.75
      8343.2    0.2627348     2.003927    0.1030287     16104.12
      8343.4    0.2817422     2.024946    0.1069319      16104.6
      8343.6    0.3010996     2.046866    0.1108077     16105.05
      8343.8    0.3205806     2.069392     0.114282     16105.97
        8344    0.3400251     2.092574    0.1176695     16106.58
      8344.2    0.3594196     2.116371     0.120966     16106.72
      8344.4    0.3790206     2.141001    0.1236831     16107.17
      8344.6    0.3986875     2.166165    0.1258529     16107.69
      8344.8    0.4182279      2.19152    0.1277176     16107.83
        8345    0.4379354     2.217054    0.1297807     16108.32
      8345.2    0.4579953     2.243175    0.1319121     16109.07
      8345.4    0.4785757     2.269989    0.1335775     16109.93
      8345.6    0.4998061      2.29705    0.1339097     16110.83
      8345.8    0.5212321     2.323916    0.1328982     16111.41
        8346    0.5428283     2.350303    0.1320373     16111.98
      8346.2    0.5648844     2.376308    0.1314412     16113.62
      8346.4    0.5877942      2.40268     0.130537      16114.7
      8346.6    0.6115799     2.429069    0.1289766     16115.57
      8346.8     0.635604     2.454733    0.1251736     16116.51
        8347    0.6595956     2.479489    0.1198157     16117.11
      8347.2    0.6837774     2.502819    0.1144304     16117.73
      8347.4    0.7082525     2.524921    0.1086525     16118.68
      8347.6    0.7336299     2.546277    0.1021297     16119.44
      8347.8    0.7595277     2.566411   0.09474302     16119.94
        8348    0.7852595     2.584522   0.08543139     16120.29
      8348.2    0.8108618     2.600716   0.07554055      16120.7
      8348.4     0.836171     2.614622   0.06598461     16120.89
      8348.6    0.8616401     2.626844   0.05692647      16121.2
      8348.8    0.8874565      2.63731   0.04846967     16121.27
        8349    0.9134942     2.646257   0.03966032     16120.97
      8349.2    0.9397067     2.653398   0.03178497     16120.53
      8349.4    0.9662391     2.658572   0.02446211     16119.96
      8349.6    0.9933977     2.662738   0.01820954     16119.92
      8349.8     1.020884     2.665827   0.01357877     16119.65
        8350     1.048967     2.667965  0.008828852      16119.5
      8350.2     1.078023     2.669435   0.00483487     16119.78
      8350.4     1.107741     2.669801 0.0007920999     16120.16
      8350.6     1.138165     2.669694 -0.003502025     16120.53
      8350.8     1.169362     2.668599 -0.006120565     16120.73
        8351     1.200853     2.666633 -0.008919152     16121.41
      8351.2     1.232253     2.664905  -0.01148748     16122.07
      8351.4     1.263764     2.662559  -0.01313654     16122.35
      8351.6     1.295612     2.659409  -0.01493838     16122.52
      8351.8     1.327675     2.656124  -0.01602376     16122.54
        8352     1.359065     2.652954  -0.01629924      16122.5
      8352.2     1.389296      2.64974  -0.01538157     16122.44
      8352.4     1.418028      2.64637  -0.01422753     16122.71
      8352.6     1.445697     2.643819  -0.01268253     16122.84
      8352.8     1.472386     2.641572  -0.01086237     16122.77
        8353      1.49749     2.639594  -0.00910861     16123.05
      8353.2     1.519675      2.63768 -0.006639548     16123.81
      8353.4     1.538424     2.636532 -0.003184602     16124.28
      8353.6     1.553773      2.63626  0.001203776      16124.2
      8353.8     1.565225     2.637046  0.005663494     16124.44
        8354     1.572058     2.638643   0.01004894     16125.13
      8354.2     1.574132     2.641063   0.01477419     16125.39
      8354.4     1.571201     2.644299   0.01969177     16126.09
      8354.6     1.563098     2.648866   0.02444355     16127.32
      8354.8     1.550432     2.654396    0.0284974     16128.34
        8355     1.533593     2.660617   0.03180263     16129.79
      8355.2     1.512933     2.667097   0.03503042     16130.51
      8355.4     1.489222     2.674308   0.03743787     16130.76
      8355.6     1.463039     2.682421   0.03950551     16131.52
      8355.8     1.434803     2.690568   0.04093746     16132.29
        8356     1.405507     2.698702   0.04094726     16133.08
      8356.2     1.375853     2.707058   0.04044303     16133.69
      8356.4     1.346549     2.715178   0.03918197     16134.58
      8356.6     1.317595     2.722922   0.03635845     16135.76
      8356.8     1.288957     2.730047    0.0324683     16136.26
        8357     1.261382     2.736145   0.02842956     16136.88
      8357.2     1.235963     2.741153   0.02447043     16137.67
      8357.4     1.212709     2.745666   0.02042438     16138.24
      8357.6     1.191411     2.749624   0.01628334     16139.53
      8357.8     1.171618     2.752484   0.01144077     16140.86
        8358     1.153284      2.75418  0.006287591     16141.75
      8358.2     1.136645     2.754818  0.001325201     16142.71
      8358.4     1.122297     2.754654 -0.003251707     16143.53
      8358.6      1.10998     2.753544 -0.007177987     16144.48
      8358.8     1.098924     2.751578   -0.0112251     16145.34
        8359     1.088995     2.749076  -0.01473529     16145.68
      8359.2     1.080389     2.745674    -0.017208     16146.58
      8359.4     1.073084     2.741756  -0.01915891      16147.7
      8359.6     1.066769     2.737812  -0.02072341     16147.92
      8359.8     1.061508     2.733749  -0.02153834     16148.77
        8360     1.057027     2.729095  -0.02222305      16149.8
      8360.2     1.053061     2.724525   -0.0223541     16150.28
      8360.4     1.049572     2.720034  -0.02142525     16150.77
      8360.6     1.046476     2.715866  -0.02086524     16151.53
      8360.8      1.04365     2.711955  -0.02021778     16152.31
        8361     1.040995     2.707833  -0.01957433     16153.06
      8361.2      1.03858     2.703859   -0.0186379     16153.88
      8361.4     1.036314     2.700206   -0.0174472     16154.66
      8361.6     1.034037     2.697044  -0.01686714     16155.42
      8361.8     1.031774     2.693875  -0.01624919     16156.17
        8362     1.029657     2.690366  -0.01662563     16157.08
      8362.2     1.027518     2.687207  -0.01690424     16157.96
      8362.4     1.025342     2.683744  -0.01696641     16158.79
      8362.6     1.023213     2.680352  -0.01829391     16159.52
      8362.8     1.021117     2.676792  -0.01900017     16160.24
        8363     1.019065     2.672572  -0.01985093     16161.38
      8363.2     1.016972     2.668544  -0.02107777      16162.7
      8363.4     1.014939     2.664471  -0.02161214      16163.7
      8363.6     1.013034      2.65993  -0.02214815     16164.66
      8363.8     1.011287     2.655282  -0.02266029     16165.49
        8364     1.009628     2.650825  -0.02332833     16166.55
      8364.2     1.008147     2.646343  -0.02396947     16167.95
      8364.4     1.006782     2.641268  -0.02439169     16168.76
      8364.6     1.005719     2.636106  -0.02504057     16169.58
      8364.8     1.005053     2.631312  -0.02447393     16170.76
        8365     1.004697     2.626311  -0.02330351     16172.27
      8365.2     1.004626     2.621688  -0.02276926     16173.21
      8365.4     1.004991     2.617464  -0.02127632     16174.24
      8365.6       1.0057     2.613096  -0.01956667     16175.65
      8365.8      1.00672      2.60929  -0.01788024     16176.88
        8366     1.008079     2.606035  -0.01633397     16177.69
      8366.2     1.009752     2.603159  -0.01489751     16178.19
      8366.4     1.011816     2.600029  -0.01348902     16179.25
      8366.6     1.014117     2.597372  -0.01256459      16180.3
      8366.8      1.01658     2.595244  -0.01086286     16181.15
        8367     1.019303     2.593108 -0.009350601     16182.25
      8367.2     1.022186     2.591339 -0.008633738     16183.18
      8367.4     1.025161     2.589891 -0.007626699     16184.44
      8367.6     1.028119     2.588337 -0.006581599     16185.54
      8367.8     1.031054     2.587006 -0.006388696     16186.67
        8368     1.033893     2.586074 -0.005620429     16188.14
      8368.2     1.036554      2.58478 -0.004992165      16189.2
      8368.4     1.039013     2.583841 -0.004921992     16190.57
      8368.6     1.041101     2.583013 -0.004397295     16191.77
      8368.8     1.042854     2.582136 -0.003976633      16192.7
        8369     1.044245     2.581262 -0.003345891     16193.78
      8369.2     1.045146     2.580659 -0.002355433     16194.62
      8369.4     1.045506     2.580336 -0.001371286      16195.7
      8369.6     1.045295     2.580252 -0.0005467846     16196.33
      8369.8     1.044592     2.580165 0.0002193983     16196.99
        8370     1.043443     2.580222 0.0006141517     16197.78
      8370.2     1.041823     2.580511  0.001754977     16198.26
      8370.4     1.039752     2.580743  0.003115032     16199.18
      8370.6     1.037217     2.581569  0.003355667     16199.94
      8370.8     1.034409     2.582714  0.004676201     16200.74
        8371     1.031341     2.583196  0.006032854     16201.73
      8371.2     1.027974     2.584484  0.007236266      16202.7
      8371.4      1.02433     2.586395  0.009586532     16203.64
      8371.6     1.020499     2.588503   0.01064984      16204.5
      8371.8     1.016483     2.590865   0.01123908     16204.93
        8372     1.012392     2.593004    0.0124558     16205.63
      8372.2     1.008332     2.595387   0.01360948     16207.02
      8372.4     1.004122     2.598468   0.01455845     16207.85
      8372.6    0.9997725     2.601753   0.01495039     16208.33
      8372.8    0.9953565     2.604651   0.01546077     16208.96
        8373    0.9909319     2.607347    0.0163622     16209.34
      8373.2    0.9864517     2.610836   0.01797859     16209.99
      8373.4    0.9818559     2.614843   0.02007051     16210.84
      8373.6    0.9771305     2.619034   0.02107572     16211.49
      8373.8    0.9723258     2.623403   0.02153784     16212.04
        8374    0.9673798     2.627697   0.02225737     16212.55
      8374.2    0.9623703     2.632073   0.02287432     16213.01
      8374.4    0.9572628     2.636839   0.02405439      16213.4
      8374.6    0.9520223     2.641703   0.02469405     16214.09
      8374.8    0.9467106      2.64694   0.02481054     16214.56
        8375    0.9416232     2.651828   0.02524681     16215.37
      8375.2    0.9365401     2.656688   0.02557682     16215.77
      8375.4    0.9314255       2.6619   0.02657647     16216.16
      8375.6    0.9263347     2.667402   0.02760011     16217.32
      8375.8     0.921075     2.673089   0.02835613     16217.79
        8376    0.9158791     2.678768   0.02859134     16218.35
      8376.2    0.9107934     2.684585     0.028515     16219.41
      8376.4    0.9058797     2.690275    0.0289194     16220.61
      8376.6    0.9010758     2.695901    0.0291068     16221.75
      8376.8    0.8962745     2.701904   0.02940139     16222.37
        8377    0.8916081     2.707871   0.02989076     16222.98
      8377.2    0.8870997     2.713796   0.03042529     16223.88
      8377.4    0.8827665     2.719814   0.03025336     16224.76
      8377.6    0.8785729     2.726244   0.02989736     16225.55
      8377.8    0.8745677     2.732073   0.03003856     16226.21
        8378    0.8708432     2.737714   0.02949946     16227.09
      8378.2    0.8672175     2.743845   0.02956827      16227.8
      8378.4    0.8637968     2.749843   0.02941389     16228.82
      8378.6     0.860501     2.755728   0.02920206     16229.84
      8378.8    0.8572291     2.761245   0.02880261     16230.47
        8379    0.8540084     2.767206   0.02786271     16231.04
      8379.2    0.8509572     2.772885   0.02764102     16231.61
      8379.4    0.8480644     2.778018   0.02679144     16232.31
      8379.6    0.8452785     2.783358   0.02558001     16232.85
      8379.8    0.8426821     2.788639   0.02490165     16233.94
        8380    0.8401569     2.793349   0.02376884     16235.11
      8380.2    0.8376331     2.797939   0.02247858     16235.71
      8380.4    0.8353123     2.802373   0.02091061     16236.64
      8380.6    0.8331948     2.806622   0.01891033     16237.99
      8380.8    0.8309918     2.810078   0.01753982     16238.51
        8381    0.8288217     2.813068    0.0157399     16239.09
      8381.2     0.826872     2.816405   0.01396912     16239.97
      8381.4    0.8250259     2.819214   0.01275438     16240.54
      8381.6    0.8232241     2.821253   0.01062478        16241
      8381.8    0.8215998     2.823271  0.009075248     16241.93
        8382    0.8201896     2.824904  0.007475064     16243.17
      8382.2    0.8189561     2.826474  0.004727283      16244.2
      8382.4    0.8177313     2.827233  0.002517171     16244.78
      8382.6    0.8166712     2.827053 8.449388e-05     16245.29
      8382.8    0.8158001     2.826918  -0.00227663     16245.85
        8383    0.8150401     2.826542 -0.003786218     16246.71
      8383.2    0.8144169     2.825412 -0.005789325      16247.9
      8383.4    0.8139055     2.824024 -0.007715573     16248.95
      8383.6    0.8135171     2.822287 -0.009240863     16249.62
      8383.8    0.8132723      2.82037  -0.01034133     16250.37
        8384    0.8131265     2.818019  -0.01184803     16251.29
      8384.2    0.8130613     2.815751  -0.01350625     16251.96
      8384.4    0.8131135     2.812808  -0.01456446     16252.67
      8384.6    0.8133515     2.809565   -0.0164484     16253.55
      8384.8    0.8137433     2.806368  -0.01762788     16254.65
        8385    0.8142092     2.802592  -0.01849087     16255.24
      8385.2    0.8148109     2.798706  -0.02034733     16255.51
      8385.4    0.8155427     2.794772   -0.0217304     16256.16
      8385.6    0.8163517      2.79009  -0.02311335     16256.71
      8385.8    0.8172214     2.785208  -0.02449133     16257.13
        8386    0.8182069     2.780215  -0.02530539     16257.82
      8386.2    0.8192419     2.775179  -0.02637093     16258.06
      8386.4    0.8204662     2.769846  -0.02766586     16259.05
      8386.6    0.8217707     2.764111  -0.02863245      16260.1
      8386.8    0.8230686     2.758083  -0.02963548        16261
        8387     0.824403     2.752273   -0.0303106     16261.46
      8387.2    0.8258753     2.746137  -0.03048773     16262.21
      8387.4    0.8274068     2.739863  -0.03087026     16262.92
      8387.6    0.8289676     2.733692     -0.03086     16263.66
      8387.8    0.8305445     2.727577  -0.03120331     16264.32
        8388      0.83214     2.721449  -0.03168951     16265.08
      8388.2    0.8337274       2.7149  -0.03177796     16265.84
      8388.4    0.8354103     2.708341  -0.03120502     16266.72
      8388.6    0.8371206     2.702154  -0.03021437     16267.72
      8388.8    0.8387772     2.696485  -0.02902947     16268.63
        8389    0.8404639     2.690729  -0.02814441     16269.58
      8389.2     0.842224     2.685117  -0.02797654     16270.57
      8389.4    0.8439628     2.679639  -0.02755178      16271.1
      8389.6    0.8456724     2.674104  -0.02712171     16271.39
      8389.8    0.8473908     2.668687   -0.0262052     16271.43
        8390    0.8490933      2.66342  -0.02478593     16271.49
      8390.2    0.8508916     2.658675  -0.02372694     16272.18
      8390.4    0.8526922     2.654275  -0.02282787     16272.73
      8390.6    0.8544935     2.649706  -0.02273121     16273.32
      8390.8     0.856247     2.645158  -0.02300221     16273.49
        8391    0.8581029      2.64049   -0.0229783     16273.76
      8391.2    0.8600407     2.635873  -0.02271246      16274.1
      8391.4      0.86202     2.631323  -0.02187731     16274.37
      8391.6     0.864062     2.626988  -0.02111135     16274.99
      8391.8    0.8661453     2.622988  -0.02045689     16275.72
        8392    0.8683442     2.618984  -0.01989313     16276.65
      8392.2    0.8706397     2.614958  -0.01935701     16277.37
      8392.4     0.873011     2.611073  -0.01866773     16278.15
      8392.6    0.8753598     2.607502  -0.01757259     16278.72
      8392.8     0.877709      2.60405  -0.01662662     16279.47
        8393    0.8801152     2.600899  -0.01553275     16280.31
      8393.2    0.8826426     2.597772  -0.01490226     16281.02
      8393.4    0.8852528     2.595076  -0.01459056     16281.87
      8393.6     0.887914     2.592128  -0.01350323     16282.52
      8393.8    0.8906866     2.589227  -0.01303801     16283.31
        8394    0.8935275     2.586969  -0.01243734     16284.14
      8394.2    0.8964835     2.584646  -0.01110398     16285.09
      8394.4    0.8994814     2.582178  -0.01066388      16285.8
      8394.6    0.9025004     2.580344  -0.00950711     16286.24
      8394.8    0.9056799     2.578438 -0.008120321     16286.77
        8395    0.9088318      2.57704  -0.00760785     16287.31
      8395.2    0.9119828     2.575682 -0.006559723     16287.95
      8395.4    0.9152366     2.574258 -0.005890588     16288.58
      8395.6    0.9184449      2.57319 -0.005372397     16288.97
      8395.8    0.9217002     2.572327 -0.004492218     16289.92
        8396    0.9250357     2.571384 -0.003488796     16290.62
      8396.2    0.9284215     2.570664 -0.002365012     16291.54
      8396.4    0.9317992     2.570399 -0.001204369     16292.98
      8396.6    0.9351811     2.570435 -0.0008829689     16294.24
      8396.8    0.9385612     2.570421 -0.0007655197     16295.19
        8397    0.9418813     2.569957 1.423906e-05     16296.02
      8397.2    0.9452257     2.569787 0.0002594791     16297.04
      8397.4    0.9486311     2.570447 0.0006722936     16297.89
      8397.6    0.9521277     2.570628  0.001076416     16298.19
      8397.8    0.9556751     2.570495 1.753252e-05     16298.67
        8398    0.9591324     2.570648 -0.0003569014     16299.07
      8398.2    0.9623637     2.570461 -0.0003664966     16299.14
      8398.4    0.9655587     2.570343 -0.0007020774     16299.56
      8398.6    0.9687949     2.570202 -0.0006614113     16300.03
      8398.8    0.9721048     2.570086 -0.0006134572     16300.99
        8399    0.9752792     2.569932 -0.0008859056     16301.64
      8399.2    0.9782767     2.569852 -0.001047423      16301.9
      8399.4    0.9811569     2.569493 -0.001637684     16302.24
      8399.6    0.9839586     2.569248 -0.002433534     16302.68
      8399.8    0.9866688     2.568962 -0.002716951     16303.35
        8400    0.9893151     2.568397 -0.002761008     16304.13
        8401     1.002165     2.565507 -0.002936821     16307.77
        8402     1.014441     2.562314  -0.00272267     16310.75
        8403     1.027662     2.559074   -0.0016825     16313.91
        8404      1.04195     2.557506 -7.074969e-06     16317.75
        8405      1.05672     2.558777  0.002252127     16321.82
        8406     1.070899     2.562286  0.004505955     16326.14
        8407     1.082858     2.568083  0.006076382     16330.68
        8408     1.091817      2.57553  0.006908132     16335.55
        8409     1.097606     2.583083   0.00697818     16340.59
        8410      1.10004     2.589918  0.006455154     16345.39
        8411     1.099476     2.595995   0.00615636      16348.1
        8412     1.096262      2.60135  0.006462416     16350.88
        8413     1.091631     2.607708  0.007362576     16356.33
        8414     1.086202     2.615768  0.008781702     16361.74
        8415     1.080166     2.625446   0.01013612     16366.38
        8416      1.07369     2.636477   0.01099313     16370.58
        8417     1.066935     2.648253   0.01116484     16374.99
        8418      1.05998      2.65974   0.01099784     16379.77
        8419     1.052948     2.670105    0.0106056      16384.3
        8420     1.045725     2.680469   0.01046573     16387.67
        8421     1.038129     2.690675   0.01084849     16391.74
        8422     1.030391     2.701603   0.01156602     16395.41
        8423     1.022962     2.713499   0.01256362      16397.7
        8424     1.016252     2.726733   0.01352238      16400.2
        8425      1.01043     2.740929   0.01415203     16402.12
        8426     1.005764     2.755693   0.01414871     16404.55
        8427     1.001711     2.770107   0.01355361     16407.54
        8428    0.9979076     2.783328   0.01216293      16411.2
        8429    0.9942101     2.795144   0.01001153     16414.45
        8430    0.9909764     2.804345  0.007210917     16417.96
        8431    0.9884439     2.810153  0.003831827     16422.72
        8432    0.9867669     2.812171 0.0001193788     16427.55
        8433    0.9858584     2.810471 -0.003743757     16431.93
        8434    0.9857619     2.804822  -0.00739113     16435.48
        8435    0.9861634     2.795178  -0.01060595     16439.42
        8436    0.9869341     2.782607   -0.0131949     16443.05
        8437    0.9878714     2.768047  -0.01491858     16445.61
        8438    0.9888095     2.752042  -0.01601185      16449.5
        8439    0.9893511     2.735504  -0.01681298     16453.55
        8440    0.9898002     2.718559  -0.01721529     16458.64
        8441     0.990136     2.700795   -0.0172911     16463.16
        8442    0.9902193     2.683181  -0.01701366     16467.01
        8443    0.9902731     2.666339  -0.01597385     16471.01
        8444    0.9903709     2.650505  -0.01471943     16474.86
        8445    0.9901949       2.6369  -0.01325802      16478.4
        8446    0.9899584     2.624304  -0.01176121     16480.85
        8447    0.9895993     2.613307  -0.01111103     16483.25
        8448    0.9892319      2.60346  -0.01118854     16487.59
        8449    0.9889141     2.592456  -0.01192625     16492.32
        8450    0.9884688     2.579549   -0.0133526     16496.73
        8451     0.988318     2.565602  -0.01476704     16501.26
        8452    0.9885523     2.550049  -0.01552368     16505.71
        8453    0.9890179     2.533388   -0.0157145     16509.73
        8454    0.9894977     2.517455  -0.01511483     16512.57
        8455    0.9900824     2.502744  -0.01373562     16515.18
        8456    0.9907731      2.48959  -0.01166115     16520.09
        8457    0.9912158     2.478445 -0.009262323     16524.25
        8458    0.9918514      2.47081 -0.006454096     16528.29
        8459    0.9925536     2.465695 -0.003410847     16531.68
        8460    0.9930031     2.463774 -0.0005553365     16535.75
        8461    0.9933381     2.464802  0.002235901     16539.64
        8462    0.9932287     2.468589  0.004677828     16543.57
        8463    0.9926536     2.474639   0.00676236     16547.37
        8464    0.9914656     2.482485  0.008385579     16549.96
        8465    0.9900639     2.491851  0.009534821     16553.52
        8466    0.9882924     2.502131   0.01045225     16557.66
        8467    0.9860451     2.512778   0.01099354     16560.94
        8468    0.9830956     2.524294   0.01129171     16564.54
        8469    0.9793652     2.535826   0.01126289      16567.7
        8470    0.9751649     2.547298   0.01064977     16570.77
        8471    0.9705929     2.557829  0.009510828     16574.03
        8472    0.9657898     2.566893  0.007861463     16576.93
        8473    0.9609493     2.573869  0.005945564     16580.43
        8474    0.9563597     2.578744  0.003820631     16584.96
        8475    0.9526576     2.581612  0.001710308     16588.71
        8476    0.9499433     2.582176 -3.59565e-05      16591.4
        8477    0.9483306      2.58071 -0.001457539     16593.78
        8478    0.9474123       2.5786 -0.002326146     16596.41
        8479    0.9472929     2.575781 -0.002431643     16599.73
        8480    0.9484265     2.572871 -0.001854771     16605.16
        8481    0.9506727     2.570983 -0.000611324     16611.19
        8482    0.9537823     2.571181  0.001688767     16616.54
        8483    0.9575924     2.573336  0.004646598     16621.17
        8484    0.9619042     2.579626  0.008113502     16624.84
        8485    0.9666854      2.58957   0.01185125     16626.89
        8486    0.9717456     2.603635   0.01511709     16629.16
        8487    0.9768566     2.620741   0.01759685     16632.92
        8488    0.9821687     2.640094    0.0190248     16635.92
        8489     0.987424     2.659957   0.01946429     16638.88
        8490    0.9923263     2.679734    0.0187649     16642.62
        8491    0.9966558     2.698598   0.01750411     16647.57
        8492      1.00079     2.715154   0.01553301     16653.76
        8493     1.004483     2.729974    0.0130806      16657.6
        8494     1.007692     2.741866   0.01054188     16660.06
        8495     1.010916     2.750921  0.007864072     16663.33
        8496     1.013728     2.757322  0.005650385     16667.27
        8497     1.015828      2.76143  0.003806886     16670.14
        8498     1.017642     2.764468  0.002170979     16672.61
        8499     1.019324     2.766148  0.000688167     16675.02
        8500      1.02065     2.766005 -0.0008393611     16677.95
        8501     1.021844     2.764183 -0.002464327     16683.26
        8502      1.02305      2.76111 -0.004366856     16688.78
        8503      1.02459     2.756291  -0.00638845     16692.84
        8504     1.026263     2.748538 -0.008663329     16696.99
        8505     1.028181     2.738629  -0.01093499     16699.88
        8506     1.030287     2.726457  -0.01284388      16703.8
        8507     1.032251     2.712551  -0.01477741      16707.2
        8508     1.034049     2.697163  -0.01664868     16710.62
        8509     1.036102     2.679519  -0.01849297     16713.75
        8510     1.038261     2.659862  -0.02024667     16718.25
        8511      1.03979     2.638579  -0.02145721     16722.39
        8512     1.041505     2.616176  -0.02245102        16727
        8513     1.044346      2.59369  -0.02319168     16731.72
        8514     1.048775     2.570058   -0.0238009     16732.23
        8515     1.052909     2.545812  -0.02428923     16719.09
        8516      1.05485     2.520972  -0.02418573     16698.47
        8517     1.056007     2.496533  -0.02348039     16691.17
        8518     1.056487     2.473315     -0.02198     16690.91
        8519     1.055909     2.451891  -0.01989159     16689.88
        8520     1.055423     2.433052   -0.0173423      16689.4
        8521     1.053798     2.416967  -0.01442055     16692.56
        8522     1.051287     2.403946  -0.01127915     16696.89
        8523     1.049244     2.394209 -0.007884306     16701.71
        8524     1.048073     2.387936 -0.004268844     16708.13
        8525     1.046634      2.38543 -0.0008214313     16711.06
        8526     1.043572     2.386871   0.00252838     16712.97
        8527     1.039074     2.390923  0.005585921     16717.83
        8528     1.034781     2.398049  0.007973714     16725.92
        8529       1.0303     2.407774   0.01003979     16731.54
        8530     1.025866     2.418765   0.01148196     16734.11
        8531     1.021831     2.431082    0.0123646     16735.98
        8532     1.018648     2.443977   0.01293051     16739.19
        8533     1.014435     2.457232   0.01297517     16742.47
        8534     1.008636     2.470487   0.01265424     16745.32
        8535      1.00328     2.482983   0.01198187     16751.91
        8536    0.9985861     2.494594   0.01096222     16755.69
        8537    0.9944396     2.505159   0.01000898     16758.61
        8538    0.9916244     2.514336  0.009014537     16758.56
        8539    0.9884467     2.523019  0.007903924      16760.1
        8540    0.9843713     2.530652  0.006620265     16767.89
        8541    0.9819437     2.536775    0.0051138     16772.43
        8542     0.980529     2.540817  0.003589599     16774.46
        8543    0.9788104     2.543474  0.002102208     16779.57
        8544     0.978124     2.545011 0.0008673164     16785.33
        8545    0.9788205     2.545184 -0.0001023686     16789.44
        8546    0.9794693     2.544287 -0.001029709      16792.3
        8547    0.9797288     2.543064 -0.001738268     16795.79
        8548    0.9795334     2.540892 -0.002136926     16800.27
        8549    0.9800631     2.538231 -0.002497385     16804.88
        8550    0.9810548     2.535739 -0.002745685     16809.23
        8551    0.9819285     2.533075 -0.002861668     16814.41
        8552    0.9828637     2.529909 -0.003023952     16815.81
        8553    0.9843565     2.526784  -0.00318331     16817.38
        8554      0.98614     2.523643 -0.003322452     16822.63
        8555    0.9876664     2.520342 -0.003614919     16826.82
        8556    0.9900809     2.516619 -0.003935328     16831.08
        8557    0.9926485     2.512325 -0.004186426     16835.08
        8558    0.9944101     2.507902  -0.00438235     16840.29
        8559    0.9952812     2.503596  -0.00414568     16843.11
        8560    0.9961219      2.49909 -0.003688249     16843.48
        8561    0.9971237     2.495742 -0.003022559     16845.67
        8562    0.9985551     2.493149   -0.0018137      16851.6
        8563    0.9999747     2.491506 -0.0003782936     16855.77
        8564     1.000519     2.491835  0.001324311     16859.36
        8565     1.000878     2.494229  0.003264056     16864.14
        8566     1.001039     2.498446  0.005058633     16870.19
        8567     1.000509     2.504562  0.006654432     16872.41
        8568     1.000728      2.51207  0.008036126      16873.3
        8569      1.00091     2.520846  0.008950301     16877.52
        8570     1.000407     2.530591  0.009435789     16883.62
        8571     1.001123     2.540363  0.009423899     16890.33
        8572     1.002609     2.549813  0.009078462      16897.9
        8573      1.00383     2.558542  0.008439465     16904.17
        8574     1.005312     2.566904  0.007735831     16906.74
        8575     1.006646     2.574121  0.006876099     16909.13
        8576      1.00663     2.580756  0.005929234     16913.15
        8577     1.006796     2.586046  0.005026363     16917.64
        8578     1.007607     2.590621  0.004070155     16923.19
        8579     1.008676     2.594226  0.003288864     16928.61
        8580     1.009768     2.597037  0.002266381     16932.77
        8581      1.01104     2.599202  0.001398141     16937.07
        8582     1.012098     2.599687 0.0003545383     16941.84
        8583     1.012787     2.599819 -0.0007219947     16946.37
        8584     1.013811     2.598455 -0.001727517     16947.56
        8585     1.014913     2.596314 -0.002949787      16949.1
        8586     1.015203     2.592777 -0.004134537     16950.84
        8587      1.01563      2.58802 -0.005540516     16952.04
        8588     1.016846     2.581917 -0.006749216     16953.89
        8589     1.017841     2.574152 -0.007896176     16958.02
        8590     1.018853      2.56578 -0.009004078     16965.04
        8591     1.019199     2.556435 -0.009745829     16969.48
        8592      1.01844       2.5459  -0.01062229     16970.04
        8593     1.018181     2.535168  -0.01122438     16970.72
        8594     1.017818     2.523291  -0.01157524     16974.72
        8595     1.016853     2.511538  -0.01167216     16978.32
        8596     1.016017     2.499599  -0.01144943     16981.45
        8597     1.015465      2.48848  -0.01116721      16983.4
        8598      1.01468     2.477493  -0.01080116     16985.95
        8599     1.012871     2.466869  -0.01050891     16989.36
        8600     1.010683     2.456395 -0.009996583     16995.49
        8601     1.008676     2.446444 -0.009254779     16999.82
        8602     1.006834     2.437507 -0.008190458      17000.8
        8603     1.005004      2.42985 -0.007194411      17004.5
        8604     1.003042     2.423633 -0.006247047     17011.26
        8605     1.001704     2.417667 -0.005323038     17018.81
        8606      1.00041     2.412519 -0.004452899     17021.96
        8607    0.9987333     2.408558 -0.003525035     17025.54
        8608    0.9971458     2.405821 -0.002587179     17030.61
        8609    0.9954719     2.403566   -0.0017578     17033.46
        8610     0.993989      2.40217 -0.001171261     17036.48
        8611    0.9933039     2.401526 -0.0006394262     17040.43
        8612    0.9936599     2.401136 -0.0003607882     17045.79
        8613    0.9939358     2.401009 -0.0001024479      17048.4
        8614    0.9938817     2.400727 -6.064906e-06     17050.68
        8615    0.9936613     2.401117 -8.526266e-05     17053.82
        8616    0.9937712     2.401112 -1.642143e-05     17056.32
        8617    0.9939447     2.400668  -0.00020366     17057.71
        8618    0.9942228     2.400661 -0.0003278734     17059.48
        8619    0.9944009     2.400302 -0.0002544842     17060.86
        8620    0.9948331       2.3998 -0.0003215752     17060.32
        8621    0.9958213      2.39965 -0.0003653283     17055.38
        8622    0.9967579     2.399375 -0.0002877892     17034.09
        8623    0.9977417     2.398841 -0.0002235055     16945.65
        8624    0.9974931     2.398649 -0.0001363945      16831.1
        8625    0.9959179     2.398756 -0.0002086354     16842.41
        8626    0.9950987     2.398829 -0.0002153079     16906.84
        8627    0.9961766     2.398006 -0.0002384142     17050.53
        8628    0.9973056     2.397788 -0.0001386363     17093.61
        8629    0.9978941     2.397802 0.0002210436     17103.95
        8630    0.9985602     2.398275  0.000522642     17109.78
        8631    0.9993507      2.39889 0.0008635304     17116.31
        8632     1.000164     2.399879  0.001223879     17121.97
        8633     1.000821     2.401256  0.001511677     17124.51
        8634     1.000919      2.40317  0.001781181     17126.28
        8635     1.000387     2.404937   0.00200184     17130.03
        8636     1.000035     2.407003  0.002014118     17135.23
        8637    0.9998685     2.409264  0.002120658     17140.54
        8638    0.9997387     2.411227  0.002230711     17143.32
        8639     0.999569      2.41342  0.002110577     17145.74
        8640    0.9999568     2.415926  0.002136074     17148.71
        8641      1.00074     2.417706  0.001993015     17151.07
        8642     1.001325     2.419771  0.001797505     17152.36
        8643     1.001985     2.421392  0.001665533     17154.65
        8644     1.002582     2.423116  0.001502107     17157.72
        8645     1.002952     2.424368  0.001405043     17160.92
        8646     1.002912     2.425779  0.001151313     17165.88
        8647     1.002859     2.427012  0.001048397     17170.58
        8648     1.003129     2.427721 0.0009817065      17174.8
        8649     1.003501     2.428562 0.0009458331     17179.56
        8650     1.003511     2.429706 0.0008982544     17185.01
        8651     1.003961     2.430795 0.0008081516     17190.01
        8652     1.004889     2.431315 0.0006837025     17194.84
        8653     1.005898     2.431794 0.0006209241     17198.83
        8654       1.0069     2.432441 0.0007757583      17201.2
        8655     1.008121     2.433279  0.001007834     17205.74
        8656     1.008756     2.434418  0.001072743     17210.28
        8657     1.008911     2.435826  0.001096337     17213.15
        8658     1.009236     2.436732  0.001099385     17216.22
        8659     1.009851     2.437664  0.001096433      17219.5
        8660     1.010669     2.438815  0.001360402     17221.54
        8661     1.011469     2.440211  0.001474582     17224.94
        8662     1.011869     2.442174  0.001603415     17227.86
        8663     1.012659     2.443563  0.001734138     17232.46
        8664      1.01365     2.445229  0.001524017     17236.04
        8665     1.014035     2.447148   0.00152329     17237.34
        8666     1.013939      2.44827  0.001311304     17238.75
        8667     1.013879     2.449656 0.0007491696     17242.98
        8668     1.014003     2.450474 0.0005150526      17246.9
        8669     1.014537     2.450144 9.635977e-05     17250.44
        8670     1.014905      2.45033 -0.0003553345     17254.83
        8671     1.013867     2.450041 -0.0006857381     17258.95
        8672     1.012663     2.449053 -0.001361993      17261.3
        8673     1.012069     2.447402 -0.001968952     17264.25
        8674     1.011528     2.444882  -0.00238676     17268.37
        8675     1.010961     2.442165 -0.002821297     17270.48
        8676     1.010212     2.439506 -0.003082872     17273.55
        8677     1.008905     2.436116 -0.003412228     17277.32
        8678     1.007588      2.43255 -0.003784771     17281.58
        8679     1.006257     2.428516 -0.004026337     17287.17
        8680     1.004491     2.424367 -0.004188096     17289.99
        8681     1.002549     2.420011 -0.004374996      17293.6
        8682     1.000702     2.415798  -0.00444165     17298.46
        8683      0.99913     2.411016 -0.004505596     17301.46
        8684    0.9977661       2.4066 -0.004646143     17303.42
        8685    0.9961732     2.401989 -0.004528819     17304.47
        8686    0.9945995     2.397213  -0.00448759      17306.4
        8687     0.992812     2.392901 -0.004307078     17308.65
        8688    0.9913893      2.38865 -0.003999878     17310.92
        8689    0.9906307      2.38476 -0.003735926     17315.05
        8690    0.9898714     2.381214 -0.003313193     17318.92
        8691    0.9893501     2.377957 -0.002923315     17321.93
        8692    0.9890977     2.375397 -0.002429688     17325.04
        8693    0.9890821     2.373067 -0.001946377     17329.43
        8694    0.9887664     2.371495 -0.001528539     17333.82
        8695    0.9881962     2.370172 -0.001018734     17337.36
        8696    0.9877184     2.369283 -0.0007663082     17341.13
        8697    0.9880106     2.368992 -0.0006260268     17340.04
        8698    0.9883973      2.36843 -0.0004873695     17327.98
        8699    0.9880842     2.367668 -0.0005140149     17317.04
        8700    0.9877238     2.367333 -0.0005091419     17321.96
        8701    0.9876376     2.366936 -0.0005401572     17333.68
        8702    0.9879884     2.366393 -0.0007532854     17347.18
        8703    0.9883133     2.365507 -0.001123978     17355.55
        8704    0.9885384      2.36432 -0.001510119     17360.88
        8705    0.9886648      2.36244 -0.001840391     17361.09
        8706    0.9888612     2.360353 -0.002269256     17352.28
        8707     0.989339     2.358146 -0.002608088     17344.23
        8708    0.9898814     2.355243 -0.002960258      17348.2
        8709    0.9900113     2.352008 -0.003351472     17358.23
        8710    0.9895144     2.348512 -0.003599231     17370.57
        8711    0.9888205      2.34474 -0.003800176     17379.75
        8712    0.9880992     2.340846  -0.00378869     17385.19
        8713    0.9878127     2.336807 -0.003742478     17389.69
        8714    0.9876557     2.333357 -0.003506877     17393.61
        8715    0.9875563      2.32977 -0.003124504     17398.48
        8716    0.9874127     2.326819 -0.002715729     17402.85
        8717     0.987511     2.324309 -0.002233037     17407.09
        8718    0.9877868     2.322494 -0.001772487     17410.65
        8719    0.9880131     2.320838 -0.001361979      17415.6
        8720    0.9883561     2.319729 -0.001108203     17419.92
        8721    0.9887252     2.318861 -0.0007969894     17423.05
        8722     0.988685     2.318061 -0.0006567886     17423.96
        8723    0.9884789      2.31765 -0.0005315869     17425.44
        8724    0.9888744     2.317101 -0.0004044747     17429.49
        8725    0.9894202     2.316735 -0.0004374878     17434.39
        8726    0.9898414     2.316443 -0.0005243632     17437.93
        8727    0.9901577       2.3159 -0.0005444206     17442.22
        8728    0.9903226     2.315004 -0.0005388778      17446.7
        8729    0.9906133     2.314557 -0.0004598228     17449.52
        8730    0.9910548     2.314288 -0.0003001861     17451.27
        8731    0.9916346     2.314061 -0.0002288148     17453.44
        8732    0.9924897     2.313803 -0.0001696956     17457.29
        8733    0.9936754     2.313642 -8.663388e-05     17462.98
        8734     0.994665     2.313609 -2.039648e-05     17467.93
        8735    0.9953786     2.313714 7.132015e-05     17471.46
        8736    0.9958588     2.313722 6.274059e-05     17473.84
        8737    0.9963034     2.313927 0.0001357234     17476.79
        8738    0.9967685      2.31386 0.0001885697     17481.77
        8739    0.9972403     2.314257   0.00016449     17486.86
        8740    0.9978531     2.314476 0.0003013734     17489.52
        8741    0.9986383     2.314585 0.0002962546     17490.79
        8742    0.9995861     2.315066 0.0003080725     17492.36
        8743     1.000633     2.315442 0.0004123152     17495.18
        8744     1.001539     2.315708 0.0004497123     17497.88
        8745     1.001921     2.316234 0.0004698096     17502.07
        8746     1.001931     2.316864 0.0005717556      17504.4
        8747     1.002253     2.317321 0.0005480925     17505.65
        8748     1.002779     2.317995 0.0004666562     17506.59
        8749     1.003597     2.318427 0.0004857765     17508.79
        8750     1.004788     2.318731 0.0003928527     17513.13
        8751      1.00598     2.319264 0.0004240657     17516.94
        8752     1.006681     2.319567 0.0005068996     17518.92
        8753     1.006604     2.320123 0.0004664856     17521.99
        8754     1.006687     2.320759 0.0004463124     17526.71
        8755     1.006937      2.32113 0.0003878708     17530.52
        8756     1.007103     2.321352 0.0002947339     17533.02
        8757     1.007852     2.321674  0.000304947      17536.4
        8758     1.008621     2.321938 0.0002873049     17538.01
        8759     1.008514      2.32235 0.0001986726     17540.77
        8760     1.008277     2.322501 0.0002469643     17545.78
        8761     1.007826     2.322469 0.0001770658     17550.69
        8762        1.007     2.322925  0.000171566      17555.6
        8763     1.006173     2.323058 0.0002740664     17559.01
        8764     1.005898     2.323187 0.0002119195     17562.27
        8765     1.005712     2.323565 0.0001969478     17564.97
        8766     1.005545     2.323773 0.0001144767     17568.19
        8767     1.005285     2.323846 4.579786e-05      17570.3
        8768     1.005046     2.323645 9.324588e-05     17573.19
        8769     1.004615     2.323749 4.699208e-05     17577.13
        8770     1.003538     2.324146  5.24335e-05     17579.83
        8771     1.002286     2.324034 -1.728219e-05     17582.31
        8772     1.001444     2.323855 -0.000217677     17585.53
        8773     1.000881     2.323679 -0.000378305     17589.41
        8774     1.000204     2.323275 -0.0004742244     17592.43
        8775    0.9995557     2.322521 -0.0006216297     17596.21
        8776    0.9988199     2.321958 -0.0007609561     17598.07
        8777    0.9984225     2.321193 -0.0007801188     17599.78
        8778    0.9985451     2.320232 -0.001007336     17601.29
        8779    0.9984802       2.3194 -0.001175147     17602.39
        8780    0.9984567     2.317929 -0.001307159     17604.68
        8781     0.998678     2.316492 -0.001588431     17608.85
        8782    0.9986637     2.315003 -0.001687997     17613.26
        8783     0.997988     2.313047 -0.001842547     17616.42
        8784    0.9970446     2.311177 -0.001964274     17618.31
        8785     0.996031     2.309122 -0.002135783     17620.35
        8786    0.9952192     2.307146 -0.002281364     17622.34
        8787    0.9950401     2.304503 -0.002394904     17624.75
        8788    0.9952572     2.302051 -0.002560218     17625.72
        8789    0.9958768     2.299543 -0.002553419     17627.11
        8790    0.9964566     2.296905 -0.002565985     17631.37
        8791    0.9964589      2.29429 -0.002645317     17635.87
        8792    0.9960523     2.291787 -0.002672648     17640.38
        8793    0.9958841     2.288961 -0.002507244     17643.13
        8794    0.9962141     2.286214 -0.002406279      17645.9
        8795    0.9965733     2.284261 -0.002176818     17648.58
        8796    0.9970191     2.282162  -0.00197179     17651.39
        8797    0.9973048     2.280254 -0.001947841     17653.03
        8798     0.997368     2.278327 -0.001769005     17654.18
        8799    0.9970207     2.276469 -0.001622037     17655.99
        8800    0.9965404     2.275086 -0.001502835     17658.74
        8801    0.9960993     2.273766 -0.001276292     17661.56
        8802    0.9957518     2.272316 -0.001165659     17664.23
        8803    0.9955557     2.271364  -0.00108282     17667.21
        8804    0.9955029     2.270424 -0.000989079        17671
        8805    0.9953333     2.269435 -0.0009174955     17673.98
        8806    0.9951172      2.26836 -0.0007913166     17676.92
        8807    0.9947618     2.267694 -0.0007456031     17680.47
        8808    0.9944023     2.267258 -0.000647317      17682.8
        8809    0.9945886     2.266452 -0.0005219215     17685.66
        8810    0.9946066      2.26577 -0.0005451393     17688.97
        8811    0.9943655     2.265607 -0.0004246932      17691.5
        8812    0.9944739     2.265078 -0.0003808973     17694.01
        8813    0.9944743     2.264753 -0.0005505917     17695.28
        8814    0.9942786     2.264247 -0.0005784264     17698.33
        8815      0.99415     2.263404 -0.0006798373     17702.31
        8816    0.9942417     2.262764 -0.0007645973     17705.98
        8817    0.9946209     2.262034  -0.00074652     17709.08
        8818    0.9952761     2.261188 -0.0008327432     17712.38
        8819    0.9955906     2.260418 -0.0009384693     17714.54
        8820    0.9954716     2.259433 -0.0009987671     17715.42
        8821    0.9951912      2.25828 -0.001126513     17716.22
        8822    0.9949222     2.257193 -0.001257924     17717.54
        8823    0.9949209     2.255912 -0.001397248     17717.05
        8824    0.9950564     2.254401  -0.00151043     17715.91
        8825    0.9951871     2.252691 -0.001595212     17714.92
        8826    0.9947717     2.251152  -0.00165281     17712.76
        8827    0.9941556     2.249531 -0.001656824     17707.68
        8828    0.9938678      2.24779 -0.001763774     17698.64
        8829     0.993983     2.246064 -0.001906021     17680.36
        8830    0.9948661     2.244096 -0.001826281      17632.6
        8831    0.9969297     2.241907 -0.001547633     17483.05
        8832    0.9970819     2.240485 -0.001640542     17245.89
        8833    0.9936903     2.239873 -0.001389589     17227.78
        8834    0.9953991     2.237534 -0.001235883     17331.52
        8835    0.9955491     2.236349  -0.00151829     17274.26
        8836    0.9932329     2.235542 -0.001283136     17476.69
        8837    0.9948593       2.2338 -0.001267368     17708.93
        8838    0.9954649     2.232402 -0.001369157     17767.92
        8839    0.9955066     2.231279 -0.001201329     17781.89
        8840    0.9955926     2.230065 -0.001187728     17788.27
        8841    0.9956768     2.228995 -0.001251095     17791.83
        8842    0.9958335     2.227651 -0.001095138     17794.17
        8843    0.9959402     2.226275 -0.001150436     17797.08
        8844    0.9960236     2.225684 -0.001091088     17800.45
        8845    0.9962732     2.224393 -0.001040778      17802.5
        8846    0.9966271     2.223286 -0.001137962     17804.15
        8847      0.99731     2.222112 -0.001068084     17807.09
        8848    0.9981932     2.221133 -0.001112138     17810.98
        8849    0.9989888     2.220121 -0.001005727     17815.21
        8850    0.9992894     2.218838 -0.0009783541     17818.32
        8851    0.9996147     2.218089 -0.001047001     17820.66
        8852     1.000225     2.217219 -0.000997178     17823.36
        8853     1.000802     2.215933 -0.0009930664     17825.35
        8854      1.00085     2.214849 -0.0009383554     17827.28
        8855     1.000639     2.214117 -0.0007583366     17830.02
        8856     1.000663     2.213466 -0.0006147804     17832.09
        8857     1.000656     2.212899 -0.0006482884     17834.25
        8858     1.000518      2.21239 -0.0006270884     17836.01
        8859     1.000566     2.211524 -0.000563606     17839.69
        8860      1.00077     2.210957 -0.0006088824     17844.24
        8861     1.001117     2.210645 -0.0004446404     17850.15
        8862     1.001461     2.209955 -0.0004061459     17855.52
        8863     1.001403     2.209745 -0.0003287859     17859.43
        8864      1.00135     2.209333 -0.000182986     17860.96
        8865     1.000901      2.20933 -0.0001259354     17862.24
        8866     1.000051     2.209223 3.827248e-05     17863.66
        8867    0.9994754     2.209241 -1.665553e-05     17865.78
        8868    0.9990795     2.209486 -1.552616e-05     17868.56
        8869    0.9985651     2.209263 2.365268e-05      17870.6
        8870     0.998227     2.209161 -0.0001028535     17873.66
        8871    0.9982003     2.209336 -5.648491e-05     17877.54
        8872    0.9983963     2.209074 3.462916e-05        17881
        8873    0.9986137     2.209037  4.49201e-05     17885.31
        8874    0.9988501     2.209299 0.0001231693     17888.28
        8875    0.9989026     2.209515 0.0001665715     17890.91
        8876    0.9988217     2.209567 0.0001458578     17893.46
        8877    0.9984715     2.209704  0.000168604     17895.48
        8878    0.9981942     2.209882 0.0001928183      17896.8
        8879     0.998076      2.21019 0.0002141019     17898.31
        8880    0.9978859     2.210338 0.0002903256     17902.34
        8881    0.9977405      2.21056 0.0003214792     17906.56
        8882    0.9976786     2.211044 0.0003771823     17909.27
        8883    0.9975851     2.211476 0.0003558971     17910.92
        8884    0.9974006     2.211847 0.0002993226      17912.3
        8885    0.9972364     2.211984 0.0002055824     17915.47
        8886    0.9971401     2.212241  7.69988e-05     17919.16
        8887    0.9970479     2.212298 0.0001964027     17922.65
        8888    0.9969928     2.212155 0.0001525681     17925.98
        8889    0.9969071     2.212769 5.556045e-05     17929.46
        8890    0.9968614     2.212851 0.0001476379     17932.76
        8891    0.9967937      2.21252 -9.565784e-05     17934.78
        8892    0.9967741     2.212746 -0.0002555829     17937.58
        8893    0.9966625     2.212387 -0.0002913266     17939.19
        8894    0.9966771     2.211829  -0.00047492     17941.79
        8895     0.996578     2.211355 -0.0005573499     17945.35
        8896    0.9961409     2.210846 -0.0006363242     17948.38
        8897    0.9955129     2.210157 -0.0007369487     17950.82
        8898     0.995129     2.209284 -0.0008658253      17953.7
        8899    0.9950359     2.208407 -0.001005578     17956.67
        8900    0.9950819     2.207383 -0.001174027     17959.15
        8901    0.9951349     2.206135 -0.001428982     17962.59
        8902    0.9950033     2.204588 -0.001532693     17965.29
        8903    0.9951537     2.202691 -0.001604328      17968.1
        8904    0.9951608     2.201252 -0.001648329     17970.81
        8905    0.9950807     2.199718 -0.001646432     17972.75
        8906    0.9948465     2.197994 -0.001708778     17974.56
        8907    0.9945404     2.196106 -0.001763772     17976.65
        8908    0.9947034     2.194417 -0.001762028     17979.38
        8909    0.9952304     2.192662 -0.001637608     17983.05
        8910    0.9954943     2.190946 -0.001640206     17986.43
        8911    0.9954053     2.189555 -0.001644825     17990.39
        8912    0.9954153     2.187856 -0.001705141     17994.16
        8913    0.9955973     2.186083 -0.001734859     17996.75
        8914    0.9957398     2.184126 -0.001649672     17998.23
        8915    0.9956868     2.182616 -0.001606352     18000.22
        8916    0.9956061     2.181257 -0.001444082     18002.64
        8917    0.9956993     2.179658 -0.001352565     18004.48
        8918    0.9957556     2.178349 -0.001366237     18007.52
        8919    0.9955965     2.177206 -0.001291658     18011.08
        8920    0.9954821     2.175792  -0.00122342      18014.2
        8921    0.9955247     2.174491 -0.001224959     18017.04
        8922    0.9954852     2.173456 -0.001113434     18019.26
        8923    0.9954797     2.172306 -0.001076057     18021.92
        8924    0.9956656     2.171339 -0.001087236     18025.09
        8925    0.9958472     2.170187 -0.0009528563      18027.9
        8926    0.9960856     2.169107 -0.0009551117     18030.83
        8927    0.9962923     2.168494 -0.0009599478     18033.45
        8928     0.996661     2.167518 -0.0009571321     18034.62
        8929    0.9968697     2.166347 -0.001002633     18035.82
        8930    0.9971801     2.165278 -0.001013493     18039.55
        8931    0.9974332     2.164484 -0.0008621836     18042.98
        8932    0.9973649     2.163464 -0.0008218089     18046.04
        8933    0.9971052     2.162898 -0.0008093291     18048.05
        8934    0.9971258     2.161991 -0.0007457041     18051.07
        8935    0.9973136     2.161246 -0.0008542848     18053.12
        8936    0.9976805     2.160481 -0.0008573226     18049.07
        8937    0.9983814     2.159481 -0.0008061931     18023.48
        8938    0.9987831     2.158562 -0.000789416     17975.24
        8939    0.9981778     2.158022 -0.0007629963     17955.23
        8940    0.9975862     2.157324 -0.0007433997     17980.18
        8941    0.9973846     2.156429 -0.0007606231     18027.93
        8942    0.9976887     2.155588 -0.0008131739     18054.49
        8943    0.9978331     2.154979 -0.0008340182      18062.7
        8944    0.9979899     2.154071 -0.0007550836      18068.5
        8945     0.998262     2.153093 -0.0008486123     18073.82
        8946    0.9987284     2.152568 -0.000855492     18078.68
        8947    0.9990609     2.151585 -0.0007973097     18082.35
        8948    0.9994776     2.150649 -0.000900707     18085.89
        8949     1.000067     2.149904 -0.0009154706     18088.18
        8950     1.000362     2.148965 -0.0008719871     18089.09
        8951       1.0004     2.147923 -0.0008402282     18091.66
        8952     1.000182     2.147161 -0.0008111463     18094.45
        8953     1.000206     2.146543 -0.0007826998     18097.72
        8954     1.000396      2.14572 -0.000825611     18100.71
        8955     1.000584     2.144792 -0.0009198795     18103.81
        8956     1.001027     2.143859 -0.0008935954     18105.47
        8957      1.00157     2.142864 -0.0009052122      18106.6
        8958     1.001829     2.142146 -0.0009201791        18109
        8959     1.002044     2.141171 -0.0008667893     18111.35
        8960     1.002334     2.140178 -0.0009757203     18112.83
        8961     1.002755     2.139396 -0.0009570405     18115.52
        8962      1.00307     2.138243 -0.0008614265      18118.3
        8963     1.003055     2.137343 -0.0009460349     18120.83
        8964     1.002829     2.136732 -0.0009134217      18123.5
        8965      1.00286     2.135612 -0.0009949345     18127.57
        8966     1.003145     2.134589 -0.001119404     18131.79
        8967     1.003147     2.133363 -0.001081104     18133.38
        8968     1.002915     2.132255  -0.00102865        18135
        8969     1.002636     2.131288 -0.0009992017      18136.6
        8970     1.002508     2.130475 -0.0009578233     18138.14
        8971     1.002409     2.129366 -0.0009409803     18141.41
        8972     1.002402     2.128423 -0.0009667267     18146.57
        8973     1.002535     2.127524 -0.0009250366     18150.17
        8974     1.002565     2.126608 -0.0008406279     18152.32
        8975     1.002672     2.125666 -0.0007861297     18154.22
        8976     1.002656     2.125061 -0.0007711464     18156.71
        8977     1.002573     2.124379 -0.0007529078     18158.46
        8978     1.002557     2.123523 -0.0007936312     18159.29
        8979     1.002631     2.122655 -0.0007983805     18161.36
        8980     1.002577     2.121886 -0.0007505234     18163.11
        8981     1.002309     2.121186 -0.0006873728     18164.64
        8982     1.002361     2.120521 -0.0007183096     18165.14
        8983     1.002519     2.119905 -0.0007132538     18166.02
        8984     1.002677     2.119013 -0.0006602429     18168.28
        8985     1.002514     2.118333 -0.0006886163     18169.96
        8986     1.002062      2.11788 -0.0006572047     18172.42
        8987     1.001857     2.117151 -0.0006244175     18175.02
        8988     1.001905     2.116384 -0.0006446561     18177.07
        8989     1.002162     2.115835 -0.000604257     18179.29
        8990     1.002259     2.115302 -0.0005603054      18181.7
        8991     1.002158     2.114734 -0.0005368892      18182.8
        8992     1.001837     2.114143 -0.0005101186     18183.46
        8993     1.001572     2.113688 -0.0005152115     18184.63
        8994     1.001658     2.113261 -0.0005594673     18186.58
        8995     1.001713     2.112673 -0.0005911843     18189.35
        8996     1.001717     2.111905 -0.0005785875     18192.29
        8997     1.001711     2.111323 -0.0005246021     18194.66
        8998     1.001648     2.110947 -0.000477753     18196.93
        8999     1.001319     2.110574 -0.0004650867     18198.55
        9000     1.001135     2.109994 -0.0004868941     18201.17
        9001     1.000819     2.109463 -0.0005929561     18203.74
        9002     1.000678     2.108999 -0.0005670876     18206.69
        9003     1.000717     2.108203 -0.0005605572     18209.26
        9004     1.000641     2.107726 -0.0005530708     18212.92
        9005     1.000439      2.10722 -0.0005093664      18215.7
        9006     1.000403     2.106787 -0.0005053509     18218.39
        9007     1.000564     2.106165 -0.0004991373     18220.89
        9008     1.000752     2.105704 -0.0005049686     18223.55
        9009     1.000777     2.105224 -0.0004350553     18225.23
        9010     1.000563     2.104767 -0.0004265968     18226.55
        9011     1.000524     2.104425 -0.000466152     18228.64
        9012     1.000546     2.103998 -0.0004167746     18230.85
        9013     1.000313     2.103359 -0.000419607     18233.02
        9014    0.9997186       2.1031 -0.0004072665     18235.07
        9015    0.9992447     2.102746 -0.0003349183        18237
        9016    0.9989128     2.102369 -0.0003303663     18239.38
        9017    0.9987382     2.102019 -0.0004041779     18241.79
        9018    0.9984238     2.101778 -0.0005216394     18243.94
        9019    0.9980455      2.10113 -0.0004565358     18246.94
        9020    0.9976416     2.100282 -0.0005387885     18250.58
        9021    0.9973186     2.100193 -0.0005422697     18253.86
        9022    0.9970832     2.099623 -0.0005537118     18256.03
        9023    0.9970462     2.098961 -0.0007264609     18258.69
        9024    0.9971831     2.098067 -0.000722055     18261.69
        9025    0.9972819     2.097287 -0.0006728819     18263.56
        9026    0.9975766     2.096735 -0.0005773438     18265.12
        9027    0.9979484     2.096269 -0.0005659743     18267.81
        9028    0.9983658     2.095758 -0.0006196357     18271.14
        9029    0.9987715     2.095024 -0.0006471806      18274.4
        9030    0.9990813     2.094256 -0.0006676206     18276.69
        9031     0.999053      2.09368 -0.0007148877     18278.48
        9032    0.9989372     2.093088 -0.0007504478     18280.26
        9033    0.9987875     2.092164 -0.0007539685     18281.27
        9034    0.9987585     2.091255 -0.0007778614     18283.16
        9035    0.9986858     2.090665 -0.0007460604     18285.99
        9036    0.9986576     2.089976 -0.0007487047     18289.45
        9037    0.9986369      2.08918 -0.0007774759      18292.1
        9038    0.9983843      2.08826 -0.0008349784     18293.76
        9039    0.9979008     2.087555 -0.0008064435     18294.03
        9040    0.9977635     2.086636 -0.0007298961     18294.56
        9041    0.9975584     2.085954 -0.0007243687     18296.48
        9042    0.9974195      2.08534 -0.000740249     18298.96
        9043    0.9973644     2.084657 -0.0008042928     18300.93
        9044    0.9975097     2.083675 -0.0008030498     18303.94
        9045    0.9975755     2.082737 -0.000866072     18307.34
        9046    0.9975191     2.082128 -0.0008362345     18310.05
        9047    0.9975207     2.081193 -0.0008111799     18312.46
        9048    0.9978157      2.08033 -0.000926128     18315.54
        9049    0.9983006     2.079492 -0.0009151353     18316.35
        9050    0.9986707     2.078424 -0.0009237457      18316.2
        9051     0.998922     2.077532 -0.0009652282     18318.14
        9052    0.9992828     2.076635 -0.0008658144     18321.97
        9053    0.9996903     2.075631 -0.0008285786     18325.39
        9054    0.9999797      2.07496 -0.0008425603     18328.15
        9055      1.00023     2.074218 -0.0007858449     18329.23
        9056     1.000382     2.073265 -0.0008238089     18330.17
        9057     1.000432     2.072488 -0.0009039757     18331.43
        9058     1.000406     2.071665 -0.0009197824     18332.88
        9059     1.000206     2.070602 -0.0009553287     18334.09
        9060    0.9999237     2.069586 -0.0009601858     18335.61
        9061    0.9999621     2.068667 -0.0009087181      18337.2
        9062     0.999906     2.067824 -0.0008374001     18337.95
        9063     1.000126     2.066967 -0.0007603136     18339.64
        9064     1.000241     2.066236 -0.0007480905     18340.89
        9065     1.000061     2.065625 -0.0007911463     18342.87
        9066    0.9996911     2.064832 -0.0008142175     18345.55
        9067    0.9994389     2.063803 -0.0008386669     18347.29
        9068    0.9994186      2.06298 -0.0008443535     18349.41
        9069    0.9994458     2.062271 -0.0008270158     18352.29
        9070    0.9994643     2.061455 -0.0008215166     18355.03
        9071    0.9996394     2.060495 -0.0007917036     18357.53
        9072     0.999824     2.059693 -0.0007898793      18360.1
        9073    0.9999576     2.059104 -0.0008298102     18362.23
        9074    0.9999918     2.058295 -0.0008184558     18364.38
        9075    0.9999029     2.057175 -0.0008512575     18366.49
        9076    0.9998385      2.05642 -0.0008482722     18368.57
        9077    0.9998984     2.055699 -0.0007964023     18370.32
        9078      1.00016     2.054902 -0.0007550358     18372.33
        9079      1.00047      2.05399 -0.0007428617     18373.97
        9080     1.000619     2.053399 -0.0007921473     18375.35
        9081     1.000651     2.052727 -0.0008033042     18375.95
        9082     1.000636     2.051733 -0.0008113039     18375.76
        9083     1.000744     2.050777 -0.0008184435     18374.91
        9084     1.001009     2.050154 -0.0008176665     18370.68
        9085     1.001494     2.049454 -0.0007686149     18356.37
        9086     1.001929     2.048463 -0.0008023068      18333.5
        9087     1.002141     2.047702 -0.000855296     18315.89
        9088     1.002337     2.046945 -0.0008339774     18307.38
        9089     1.002605     2.046032 -0.0007986624     18298.88
        9090      1.00308     2.045127 -0.0008560871     18272.46
        9091     1.003356     2.044507 -0.0008930262     18225.77
        9092     1.003569     2.043521 -0.0006659364      18174.5
        9093     1.003743      2.04246 -0.0006887311     18090.62
        9094     1.002012     2.042463 -0.0007275745     18080.56
        9095     1.001894     2.041753 -0.0007007556     18221.53
        9096     1.003741      2.04061 -0.0007906919     18244.78
        9097     1.004337     2.039657 -0.0007646214     18137.76
        9098      1.00284       2.0393 -0.0006948497     18119.28
        9099     1.002353     2.038694 -0.0006412342     18221.31
        9100     1.002517     2.037831  -0.00078475     18299.47
        9101     1.002213     2.037092 -0.0007990368     18322.56
        9102     1.001807     2.036161 -0.000771493     18343.87
        9103     1.001468     2.035498 -0.0008426226     18363.04
        9104     1.001369     2.034745 -0.0008278796     18374.15
        9105     1.001066     2.033722 -0.0008503266     18382.09
        9106      1.00075      2.03285 -0.0008453252     18393.25
        9107     1.000378     2.032097 -0.0008006111     18410.53
        9108     1.000167     2.031364 -0.000758051     18427.21
        9109     1.000166     2.030519 -0.0007804139     18437.08
        9110     1.000002     2.029818 -0.0008117478     18442.23
        9111    0.9999177     2.028975 -0.0007646323     18446.83
        9112    0.9999152     2.028117 -0.0007871895      18450.1
        9113    0.9998234     2.027461 -0.0007871533      18452.4
        9114    0.9997074     2.026669 -0.000800006     18455.48
        9115    0.9999928     2.025826 -0.0007904623     18459.72
        9116     1.000384     2.024917 -0.0007717326     18464.35
        9117      1.00053     2.024299 -0.0007716225     18468.09
        9118     1.000806     2.023582 -0.0007682714      18470.4
        9119     1.001091      2.02274 -0.0008201816     18472.15
        9120     1.001176     2.021844 -0.0008100466     18472.64
        9121     1.001119     2.021018 -0.0007613851     18473.42
        9122     1.001135     2.020342 -0.0007059937     18474.33
        9123     1.001024     2.019694 -0.0006575881     18475.35
        9124     1.000904      2.01902 -0.0006512823     18477.37
        9125     1.000901     2.018388 -0.000697046     18481.27
        9126      1.00075     2.017737 -0.0007039755     18484.98
        9127     1.000533     2.016906 -0.0007450905     18487.15
        9128     1.000458     2.016204 -0.0006927193     18488.99
        9129     1.000594     2.015408 -0.0006462704      18491.5
        9130     1.000838     2.014966  -0.00067628     18493.56
        9131     1.001208     2.014321 -0.0006046193      18494.4
        9132     1.001734     2.013499 -0.0006935773     18495.73
        9133     1.002162     2.012989 -0.0006752539     18497.63
        9134     1.002534     2.012191 -0.0005354184     18499.79
        9135     1.002638      2.01162 -0.0005577502     18502.14
        9136     1.002543     2.011357 -0.0005671968      18503.3
        9137     1.002427     2.010758 -0.0005850038      18503.6
        9138     1.002292     2.009923 -0.0006059774      18504.2
        9139     1.002394      2.00928 -0.0005947801     18505.29
        9140     1.002755     2.008933 -0.0005567228     18506.48
        9141     1.003284     2.008379 -0.0004941918     18509.26
        9142     1.003648     2.007696 -0.0005105525     18512.21
        9143     1.003125     2.007303 -0.0004782243     18515.06
        9144     1.002256     2.006891 -0.0004924637     18518.07
        9145     1.001623     2.006466 -0.0005383509     18520.01
        9146      1.00152     2.005726 -0.0005459617     18522.57
        9147      1.00139      2.00515 -0.0005718977     18523.66
        9148     1.001335     2.004707 -0.0004972727     18525.21
        9149     1.001229     2.004178 -0.0004769166     18525.98
        9150     1.001138     2.003737 -0.0004927538     18527.49
        9151     1.001018     2.003242 -0.0004742594     18528.57
        9152     1.000747     2.002736 -0.0005597902     18528.71
        9153      1.00061     2.002281 -0.0005670659     18530.02
        9154     1.000572     2.001498 -0.0005591533     18532.46
        9155     1.000575     2.000974 -0.0006036969     18533.87
        9156     1.000722     2.000499 -0.0005193032     18534.88
        9157     1.000991     1.999867 -0.0005184128     18536.47
        9158     1.001085      1.99942 -0.0005675963     18538.62
        9159     1.001051       1.9989 -0.0005517514     18540.45
        9160     1.001096     1.998229 -0.0006280098     18543.22
        9161     1.001434      1.99766 -0.0006542567      18546.3
        9162     1.001779     1.996908 -0.0006526075     18549.15
        9163     1.002124     1.996283 -0.0006356351      18551.8
        9164     1.002219     1.995619 -0.0006459031     18554.86
        9165     1.002167     1.995117 -0.0006725471     18557.34
        9166     1.002117     1.994325 -0.0006191122     18558.71
        9167     1.002036     1.993593 -0.0006395735     18560.16
        9168     1.001667     1.993142 -0.0006157522     18562.34
        9169     1.001514     1.992559 -0.0006340815     18565.46
        9170      1.00158     1.991862 -0.0006608699     18568.31
        9171     1.001674     1.991057 -0.000708982     18570.43
        9172     1.001774     1.990499 -0.0006759761     18571.56
        9173     1.001945     1.989723 -0.000704987     18571.31
        9174     1.002177     1.989158 -0.000764054     18571.39
        9175     1.002376     1.988237 -0.0007056616        18572
        9176     1.002535     1.987442 -0.0007528893     18572.62
        9177     1.002635       1.9869 -0.0006716025     18573.43
        9178     1.002406     1.986146 -0.0006524191     18573.87
        9179      1.00209      1.98555 -0.0006773529     18573.78
        9180     1.002171     1.984833 -0.0006359471      18575.5
        9181     1.002016     1.984191 -0.0006326467     18576.88
        9182     1.001764     1.983602 -0.0007120854     18578.28
        9183     1.001373      1.98302 -0.0007076849     18579.06
        9184     1.001027     1.981984 -0.0006669338     18580.07
        9185     1.000706      1.98136 -0.0006827629     18581.96
        9186     1.000389     1.980935 -0.0005620828     18583.33
        9187     1.000139     1.980289 -0.0006039704     18584.58
        9188    0.9999842     1.979736 -0.0006684507     18586.43
        9189     1.000028     1.978944 -0.0006328872      18587.8
        9190     1.000157     1.978261 -0.0006442581     18588.11
        9191     1.000442     1.977757 -0.000617987     18589.79
        9192     1.000783     1.977159 -0.000626448     18591.95
        9193     1.000943     1.976472 -0.000667254     18594.54
        9194      1.00077     1.975755 -0.000658482     18596.15
        9195     1.000548     1.975088 -0.000596928     18596.97
        9196     1.000477     1.974525 -0.0006076886     18597.72
        9197     1.000398     1.974084 -0.0006088798     18597.74
        9198     1.000438     1.973324 -0.0006192696     18598.28
        9199     1.000544     1.972653 -0.0006143352     18599.82
        9200     1.001009     1.972048 -0.000641998     18603.29
        9201     1.001366     1.971627 -0.0007082101      18605.2
        9202     1.001623     1.970756 -0.0007095307     18605.02
        9203     1.001979      1.96982 -0.000718795     18605.46
        9204     1.002456      1.96921 -0.0006486151     18607.67
        9205     1.002816     1.968752 -0.000554456     18609.51
        9206     1.002898     1.968162 -0.0005970631     18610.67
        9207     1.002994     1.967602 -0.0006878384     18611.36
        9208     1.003122     1.966822 -0.0006896139     18612.41
        9209     1.003137     1.966001 -0.0006894319     18615.02
        9210       1.0031     1.965403 -0.000669135     18618.29
        9211     1.003189     1.964844 -0.0006803997      18621.2
        9212     1.003572     1.964145 -0.0007084309     18623.19
        9213     1.004123     1.963279 -0.000687854     18623.94
        9214     1.004331      1.96257 -0.0006982953     18624.98
        9215     1.004193     1.962093 -0.0006485683     18626.56
        9216     1.004192     1.961352 -0.0006620331     18628.39
        9217     1.004037     1.960685 -0.0007683639     18630.33
        9218     1.003663     1.959922 -0.0007684226     18631.72
        9219     1.003191     1.959019 -0.0007940459     18632.23
        9220     1.002557     1.958278 -0.0007828766     18632.36
        9221     1.002365     1.957509 -0.0007268655     18633.83
        9222     1.002281      1.95679 -0.0007330291     18635.58
        9223     1.001931     1.956112 -0.0006900571     18637.08
        9224     1.001754     1.955346 -0.000745005     18638.94
        9225     1.001658     1.954748 -0.0007423023     18639.92
        9226     1.001734      1.95381 -0.0007022178     18642.59
        9227     1.001734     1.953143 -0.0007538347     18644.64
        9228     1.001661     1.952537 -0.0007032652     18646.83
        9229     1.001431     1.951733 -0.0006895854     18648.41
        9230     1.001365     1.950997 -0.0007172752     18649.56
        9231     1.001516     1.950384 -0.0007006063     18650.21
        9232     1.001638     1.949668 -0.0007597529     18650.18
        9233     1.001863     1.948931 -0.0008024253     18650.63
        9234     1.001759     1.947958 -0.0007179161     18649.74
        9235     1.001373     1.947175 -0.0007143264     18650.34
        9236     1.001109     1.946796 -0.0006659836     18651.48
        9237     1.001027     1.946073 -0.0006472095     18653.38
        9238     1.000997     1.945294 -0.0007636957     18655.11
        9239     1.000944     1.944586 -0.0007588318     18656.07
        9240     1.001029     1.943742 -0.0007116449     18656.87
        9241     1.001149     1.943038 -0.0006907229     18659.22
        9242     1.001101     1.942447 -0.000673785     18660.23
        9243     1.001042     1.941823 -0.0006650729     18660.74
        9244     1.000988     1.941047 -0.0006978157     18659.35
        9245     1.000853     1.940378 -0.0007005769     18657.76
        9246     1.000865     1.939656 -0.0006548067     18656.88
        9247     1.001188     1.939021 -0.0007021197     18654.08
        9248     1.001555     1.938427 -0.0007577327     18643.98
        9249      1.00214     1.937569 -0.0006909093     18600.41
        9250     1.002734     1.936625 -0.0006623776     18493.16
        9251     1.001841     1.936257 -0.0006641679     18430.78
        9252     1.001129     1.935778 -0.0006585725     18530.91
        9253     1.001657     1.934913 -0.0006702022     18595.82
        9254     1.002074     1.933991 -0.0007056636     18530.35
        9255     1.001321     1.933576 -0.0006716607      18451.4
        9256     1.000419     1.932955 -0.0006348751      18529.4
        9257     1.000367     1.932226 -0.000728773     18630.92
        9258     1.000564     1.931452 -0.0007180649     18678.42
        9259     1.000553     1.930661 -0.0006878891     18689.42
        9260     1.000391     1.930083 -0.0006773769     18693.42
        9261     1.000191     1.929474 -0.0006616743      18696.4
        9262     1.000115     1.928742 -0.000680089     18698.86
        9263     1.000069     1.928014 -0.0006915185     18700.73
        9264     1.000096     1.927363 -0.0006295366     18701.99
        9265     1.000181     1.926708 -0.000631439     18702.46
        9266     1.000173     1.926224 -0.0006448633     18701.95
        9267     1.000178     1.925489 -0.0006974388     18702.05
        9268    0.9999104     1.924783 -0.0007251933     18702.48
        9269    0.9996645     1.923918 -0.0006905706     18703.88
        9270      0.99951     1.923323 -0.0006635921     18706.03
        9271    0.9994675     1.922726 -0.0006199303     18707.92
        9272    0.9994145     1.922129 -0.0006282074     18709.37
        9273    0.9995096     1.921439 -0.0006165277     18711.87
        9274    0.9996022      1.92081 -0.0005854501      18713.2
        9275    0.9997117      1.92026 -0.000615984     18713.66
        9276    0.9996161     1.919787 -0.0006042686     18713.46
        9277    0.9995718     1.918975 -0.0006289654     18714.37
        9278    0.9997285     1.918393 -0.0006936167     18716.89
        9279    0.9998582     1.917744 -0.0006349465     18718.35
        9280     0.999971     1.917012 -0.0006459178     18718.99
        9281     1.000053     1.916435 -0.0006592009     18720.75
        9282     1.000136      1.91581 -0.0006153067     18722.58
        9283     1.000281     1.915108 -0.0006199683     18721.95
        9284     1.000413     1.914551 -0.0006192635     18723.18
        9285     1.000561     1.913955 -0.0005813551     18725.39
        9286     1.000671     1.913332 -0.0006053691     18727.53
        9287     1.000437     1.912782 -0.0005844943     18728.74
        9288     1.000217      1.91213 -0.0005959727     18730.01
        9289    0.9998781     1.911617 -0.0006008319     18730.61
        9290    0.9995943     1.910949 -0.0005832089     18731.16
        9291    0.9995449     1.910379 -0.000620541     18731.63
        9292    0.9996546     1.909797 -0.0005775043     18732.23
        9293     0.999796     1.909135 -0.000588725     18733.26
        9294    0.9998289     1.908639 -0.0005699356     18734.78
        9295    0.9999557     1.908024  -0.00056539     18736.62
        9296     1.000071     1.907517 -0.0005648528     18737.37
        9297    0.9999615     1.906873 -0.0005424257     18738.33
        9298    0.9997647     1.906379 -0.0005675562     18740.42
        9299    0.9995886     1.905854 -0.0005619004     18742.27
        9300     0.999576     1.905247 -0.0005578203     18744.07
        9301    0.9995479     1.904626 -0.0005768031     18744.61
        9302     0.999573     1.904148 -0.0005696795     18745.94
        9303    0.9997732     1.903547 -0.0005908058     18746.03
        9304      1.00004     1.902968 -0.0005711696     18745.75
        9305     1.000403     1.902263 -0.0005861681     18746.05
        9306      1.00076     1.901863 -0.0005303549     18747.17
        9307      1.00094     1.901202 -0.0005007426     18747.66
        9308     1.000946     1.900847 -0.0005924418     18748.36
        9309     1.000848      1.90026 -0.0005542185     18749.28
        9310     1.000786     1.899493 -0.0005689991      18750.6
        9311     1.000648     1.898985 -0.0005945134      18750.2
        9312     1.000661     1.898571 -0.0005788288     18750.72
        9313     1.000723     1.897882 -0.000605964        18752
        9314     1.000845     1.897178 -0.0006063215     18753.27
        9315      1.00096     1.896562 -0.0006002252     18754.44
        9316     1.000951     1.896146 -0.0005854289     18755.59
        9317     1.001028     1.895481 -0.000538565     18757.46
        9318     1.001351     1.894836 -0.0006073531     18759.65
        9319     1.001996     1.894407 -0.0006026854     18762.03
        9320     1.002447     1.893716 -0.0004936869     18761.33
        9321     1.002813      1.89307 -0.000587563      18760.4
        9322     1.002923     1.892862 -0.0006106633     18759.74
        9323       1.0031     1.892057 -0.0005692541     18759.96
        9324     1.003284     1.891273 -0.0006662432     18760.72
        9325     1.003395     1.890793 -0.000638831     18762.08
        9326     1.003259     1.890197 -0.0005458578     18763.76
        9327     1.003158     1.889502 -0.0005773082     18765.79
        9328     1.002871      1.88909 -0.0005608338     18767.26
        9329     1.002508     1.888484 -0.0005595725     18768.55
        9330      1.00235     1.887953 -0.0006306644     18769.94
        9331     1.002649     1.887263 -0.0005935542      18771.3
        9332     1.002855     1.886567 -0.0006266196     18770.82
        9333     1.002576     1.886109 -0.0005911612     18769.53
        9334     1.002463     1.885447 -0.0005463741     18770.53
        9335     1.002271     1.884899 -0.0006073632     18772.95
        9336     1.002141     1.884382 -0.0006128436     18776.01
        9337      1.00212      1.88368 -0.0006352484     18778.52
        9338     1.001989     1.882995 -0.0006662723     18779.59
        9339      1.00185     1.882358 -0.0006399029     18779.17
        9340     1.001825     1.881717 -0.0005862477     18778.48
        9341     1.001883      1.88112 -0.0005938225     18777.92
        9342     1.002048      1.88065 -0.0005695341     18777.82
        9343     1.002226     1.879983 -0.000580628     18779.08
        9344     1.002265     1.879439 -0.0006108879     18780.59
        9345     1.002238     1.878798 -0.0005524664     18781.36
        9346     1.001998     1.878207 -0.0005383603     18781.65
        9347      1.00158     1.877773 -0.0005426075     18782.58
        9348     1.001243     1.877285 -0.0005815512        18784
        9349     1.001082     1.876627 -0.0006359487     18782.79
        9350     1.001104     1.875881 -0.0006922862     18779.91
        9351     1.001143     1.875229 -0.0006706205     18777.24
        9352     1.000947     1.874516 -0.0006333192     18778.65
        9353     1.000777     1.873945 -0.000631082     18781.31
        9354     1.000785     1.873347 -0.0005923692     18783.08
        9355     1.000739     1.872705 -0.0006406019     18784.88
        9356     1.000765     1.872147 -0.000628581     18788.92
        9357     1.000944     1.871383 -0.0006207139     18792.74
        9358     1.001154     1.870833 -0.0006265121     18794.09
        9359     1.001322     1.870222 -0.0006078766      18794.7
        9360     1.001562     1.869641 -0.0005866549     18793.57
        9361     1.001866     1.868951 -0.0005913545     18791.32
        9362     1.001948     1.868487 -0.0006096301      18788.5
        9363     1.002071     1.867856 -0.0005704121     18789.06
        9364      1.00232     1.867202 -0.0006004771     18791.16
        9365     1.002551     1.866669 -0.0006383964     18791.82
        9366     1.002699     1.866085 -0.0005921605     18792.79
        9367     1.002736     1.865303 -0.0006005005     18795.89
        9368     1.002666     1.864833 -0.0006032578     18800.81
        9369       1.0023     1.864267 -0.0005727215     18802.79
        9370     1.001918     1.863672 -0.0006182794     18803.25
        9371     1.001737     1.863012 -0.0006274394     18804.67
        9372     1.001645      1.86236 -0.0006553492     18806.85
        9373     1.001584     1.861758 -0.0006592562     18806.95
        9374       1.0018      1.86105 -0.0005964005     18805.85
        9375      1.00204     1.860375 -0.0005872104     18805.36
        9376     1.002142     1.859975 -0.0005617262     18805.38
        9377     1.002183     1.859409 -0.0005483011     18806.65
        9378     1.002164     1.858803 -0.0006190223     18808.41
        9379     1.001964     1.858182 -0.000624133     18810.47
        9380     1.001696     1.857499 -0.0006175629     18811.59
        9381     1.001488     1.856912 -0.0006228656     18811.67
        9382     1.001433     1.856333 -0.0006049015     18812.41
        9383     1.001408      1.85569 -0.0005698039     18813.54
        9384     1.001215     1.855079 -0.0005872192     18814.69
        9385     1.001069     1.854633 -0.0006013825     18816.15
        9386     1.000993     1.853984 -0.0005642425     18817.05
        9387     1.000843     1.853285 -0.0006207267     18817.83
        9388     1.000687     1.852822 -0.000625297     18818.07
        9389     1.000642      1.85215 -0.0006132571     18818.29
        9390     1.000711     1.851483 -0.0006260285     18818.01
        9391     1.000687     1.850832 -0.0006227379     18817.19
        9392     1.000421     1.850318 -0.0006226786     18815.15
        9393     1.000257     1.849659 -0.0006058167     18814.72
        9394     1.000218     1.848992 -0.0006235347     18815.67
        9395     1.000204     1.848408 -0.0006414652     18816.82
        9396      1.00034     1.847824 -0.0006436988     18817.35
        9397     1.000481     1.847093 -0.0006323318     18817.82
        9398     1.000413     1.846417 -0.0006250656     18819.03
        9399     1.000283     1.845879 -0.0006071987     18820.57
        9400     1.000332     1.845323 -0.0005810946     18820.82
        9401     1.000364     1.844665 -0.0005834357     18820.97
        9402     1.000104     1.844093 -0.0006368378     18821.13
        9403    0.9998221     1.843545 -0.0006272937     18822.42
        9404    0.9997789     1.842776 -0.0005995982     18823.52
        9405    0.9997027     1.842155 -0.0006239322      18824.6
        9406    0.9996385     1.841695 -0.0006167101     18825.92
        9407    0.9997547     1.841049 -0.0005855962     18826.48
        9408    0.9998813     1.840309 -0.0006097825     18826.33
        9409    0.9996189     1.839813 -0.0006377309     18825.79
        9410    0.9994921     1.839256 -0.0005828458     18827.38
        9411     0.999749     1.838499 -0.0005919041     18828.33
        9412    0.9998773     1.837978 -0.0006213338     18827.96
        9413    0.9999719     1.837445 -0.000545971     18829.84
        9414    0.9998905      1.83677 -0.0006099677     18831.61
        9415    0.9997518     1.836315 -0.000612358     18832.44
        9416    0.9996651     1.835538 -0.0005992696     18832.48
        9417    0.9995763     1.834996 -0.0006406981     18831.09
        9418    0.9995227     1.834373 -0.0006220926     18829.48
        9419    0.9995002     1.833752 -0.0006551494     18829.41
        9420    0.9995529      1.83305 -0.0006444574     18828.99
        9421     0.999735     1.832375 -0.000616321     18828.22
        9422    0.9998496     1.831795 -0.0005957402     18827.55
        9423    0.9998718     1.831287 -0.0005717549     18826.47
        9424     1.000158     1.830667 -0.0005834632     18826.99
        9425     1.000489     1.830088 -0.0006404893     18827.49
        9426     1.000639     1.829461 -0.000618336     18827.21
        9427     1.000624     1.828725 -0.0006382314     18827.42
        9428     1.000277     1.828193 -0.0006112928     18827.57
        9429    0.9997749     1.827535 -0.0005990806     18827.16
        9430    0.9994051     1.827016 -0.0006240393     18827.14
        9431    0.9992372     1.826328 -0.0006057692      18827.4
        9432    0.9988985     1.825697 -0.0005887783     18828.24
        9433    0.9987524     1.825112 -0.0005997035     18829.41
        9434    0.9986796     1.824661 -0.0005997458     18829.86
        9435    0.9987372      1.82393 -0.000598048     18829.57
        9436    0.9987055     1.823298 -0.0006602599     18829.48
        9437    0.9986092      1.82272 -0.0006443997     18829.58
        9438    0.9986579      1.82202 -0.000633865     18829.59
        9439    0.9988939     1.821352 -0.0006724534     18829.48
        9440    0.9989616     1.820763 -0.0006192033     18829.38
        9441    0.9987781      1.82003 -0.0005662206     18829.55
        9442    0.9986509     1.819543 -0.0006125643     18829.58
        9443    0.9987396     1.819087 -0.0005709873     18828.89
        9444    0.9987264     1.818312  -0.00057387     18828.13
        9445     0.998479     1.817746 -0.0006228802     18827.45
        9446    0.9984386     1.817248 -0.0005849513     18828.25
        9447    0.9986075     1.816596 -0.0005699688     18828.73
        9448    0.9989015     1.815973 -0.0005975047        18830
        9449    0.9990783     1.815467 -0.0006024243     18830.21
        9450      0.99916     1.814858 -0.0005365417     18829.23
        9451    0.9991202     1.814186 -0.000567091     18828.46
        9452    0.9991184     1.813827 -0.0006073335     18827.71
        9453    0.9993538     1.813198 -0.0005857885      18827.6
        9454    0.9992353     1.812428 -0.0006232005     18827.19
        9455    0.9991578     1.811843 -0.0005973121     18827.43
        9456    0.9992754     1.811334 -0.0005529223     18826.77
        9457     0.999415     1.810809 -0.0005699667     18825.81
        9458    0.9995562     1.810217 -0.0006090812     18824.55
        9459    0.9997234     1.809563 -0.0005913442     18823.85
        9460    0.9996739     1.808897  -0.00059302      18824.7
        9461    0.9997182     1.808444 -0.000589395     18826.55
        9462    0.9996932     1.807845 -0.0005882896     18827.87
        9463    0.9993258     1.807205 -0.000580537     18828.75
        9464    0.9987745     1.806544 -0.0005735923     18829.64
        9465    0.9980682     1.806121 -0.0005735554     18829.67
        9466    0.9974381      1.80555 -0.0005106472     18831.01
        9467    0.9970027     1.804911 -0.0005284483     18831.65
        9468    0.9966881     1.804502 -0.0005533197     18831.07
        9469    0.9964959     1.804008 -0.0005112572     18831.13
        9470    0.9962153     1.803337 -0.0005806706     18830.75
        9471    0.9960825     1.802866 -0.0005730668     18830.25
        9472     0.996124     1.802179 -0.0005337038     18829.59
        9473     0.996019     1.801715 -0.0005335399     18828.28
        9474      0.99585     1.801202 -0.0005058607     18827.54
        9475    0.9956949     1.800732 -0.0005851445     18825.88
        9476    0.9955361     1.800156 -0.0005677709        18825
        9477    0.9954221     1.799375 -0.0005851373     18824.81
        9478    0.9954327     1.798931 -0.0005812344     18824.47
        9479    0.9957783     1.798391 -0.0005294574     18824.74
        9480    0.9960774     1.797831 -0.0005603798     18825.21
        9481    0.9960118     1.797257 -0.000519029     18824.54
        9482    0.9957492      1.79669 -0.0005164004     18823.25
        9483    0.9956131     1.796315 -0.0005664032     18819.97
        9484     0.995782     1.795765 -0.000555654     18810.19
        9485     0.996114     1.794991 -0.0005811475     18793.08
        9486    0.9961857     1.794467 -0.0006018114     18784.61
        9487    0.9961058     1.793991 -0.0005886683     18789.73
        9488    0.9960556     1.793358 -0.0005542945     18798.49
        9489    0.9961815     1.792637  -0.00056412     18806.98
        9490    0.9962538      1.79225 -0.0005737842     18809.39
        9491    0.9961834     1.791734 -0.0005415743     18799.85
        9492     0.995938     1.791063 -0.0005625501     18783.92
        9493    0.9957311      1.79047 -0.0005820189     18780.93
        9494    0.9955811         1.79 -0.0005316182     18788.63
        9495    0.9953755     1.789406 -0.0005235704     18799.51
        9496    0.9949851     1.788936 -0.0005523524     18808.31
        9497    0.9947072     1.788376 -0.0005447365     18810.24
        9498    0.9945749      1.78779 -0.0006268568     18809.29
        9499    0.9947008     1.787227 -0.0007188489     18808.99
        9500    0.9947008     1.787227 -0.0007188489     18808.99
