# This file has been produced by extranormal (v 1.0.1 - February 23, 2017)
# O. Roudenko - Synchrotron SOLEIL. Covered by GPL licence.
#Data from HDF File: /nfs/ruche-rock/rock-soleil/com-rock/2022/Projets/20220725_Gilles/op6_cell4_alone/op6_cell4_pos1_close/op6_cell4_pos1_close_0006/op6_cell4_pos1_close_0006_16153.nxs to op6_cell4_pos1_close_0006_16176.nxs
#Time at start=2022-07-28 18:50:00.380
#Time from start (seconds)=64.8600258502
#Sample temperature (C)=nan
# Normalization -------------
# pivot spectrum: LNO_pristine_av1100_00001.txt
# E0=8332.88   Eshift=-0.224680561829
# E0_pivot = 8349.6
# pre-edge params: from E0_pivot-240.0 to E0_pivot-50.0
# pre-edge range: [8109.6, 8299.6]
# post-edge params: from E0_pivot+70.0 to E0_pivot+1155.0
# post-edge range: [8419.6, 9500.0]
# I jump at E0_pivot = 0.800115782784
# shifted energy	normalized	reference	ref.derivative	I0
        8060  0.001902175     1.042945 -0.0004919873     14939.31
        8065  0.001154789      1.04049 -0.000470027      14959.5
        8070 0.0008686879     1.038246 -0.0004579698     14983.52
        8075 0.0001327275     1.035927 -0.0004378788      15006.9
        8080 0.0009075221     1.033786 -0.0004455325     15029.18
        8085  0.001113443     1.031733 -0.0004508848     15047.77
        8090  0.001451878     1.029335 -0.0004467159     15070.34
        8095   0.00185448     1.026909 -0.0004607571     15094.25
        8100 0.0008834339     1.024852 -0.0004549242     15116.61
        8105  0.001119756     1.022518 -0.0004343395     15139.57
        8110  0.000423111     1.020237 -0.0004383563     15158.84
        8115 -0.0005323155     1.018222 -0.000424387     15177.92
        8120 0.0003044512     1.016084 -0.0004066928     15198.45
        8125 2.643958e-05      1.01403 -0.0004199236     15220.38
        8130 0.0003076585     1.012103 -0.0004135812     15242.01
        8135  0.002004198     1.009824 -0.0004163652     15262.94
        8140 -3.115039e-06     1.007813 -0.0004177801     15282.72
        8145 -0.001121918     1.005703 -0.0004069388     15304.35
        8150 -0.001583206     1.003747 -0.0004086782     15321.46
        8155 -0.001136614     1.001685 -0.0004194051     15344.69
        8160 -0.001256831    0.9996393 -0.0004263079     15364.28
        8165  0.001972055    0.9973145 -0.0004287498     15392.04
        8170  0.002442271    0.9952212 -0.0004300982     15409.53
        8175 0.0005525877    0.9931099 -0.000421007     15432.25
        8180   0.00134742    0.9910373 -0.0004231173     15452.64
        8185 0.0005251743    0.9888944 -0.0004146088     15472.24
        8190 -0.0008820054    0.9867589 -0.0004175339      15494.8
        8195 -0.0005851458    0.9848177 -0.000413482     15517.06
        8200 -0.0006031026    0.9826866 -0.0004161473     15533.61
        8205 -0.0001901998    0.9806248 -0.000424892     15557.84
        8210 -0.001035362    0.9784359 -0.0004096764     15574.13
        8215 -0.001042357    0.9763199 -0.0004110579     15595.29
        8220 -0.0009152882    0.9744931 -0.0004051885     15617.63
        8225 -0.0006548722    0.9724036 -0.0003946201     15639.41
        8230 -0.0005618769    0.9703322 -0.0004011885     15660.12
        8235 -0.0008245934    0.9684275 -0.0003976915      15677.1
        8240 -0.0004943294    0.9664693 -0.0003775142     15698.81
        8245  0.001872529    0.9644498 -0.0003861677     15721.21
        8250 0.0006820818    0.9627819 -0.0003849466     15740.32
        8255 -0.0009542181    0.9607041 -0.0003600408     15757.91
        8260 -0.0005302888    0.9587704 -0.0003682241     15778.09
        8265 -0.0004396881     0.957249 -0.0003439551     15798.12
        8270  0.001696687    0.9554174 -0.0003348567     15819.96
        8275 -0.0001499919     0.953825 -0.0003329972     15836.44
        8280 9.569973e-05    0.9520733 -0.0003284485     15854.78
        8285 -0.0001735834     0.950589 -0.0003189128      15867.6
        8290 0.0003714486    0.9488484 -0.0002867348     15880.35
        8295  0.001174815    0.9474468 -0.0002847759     15891.19
        8300   0.00342628    0.9463106 -0.0002089201     15821.73
      8300.2  0.003458529    0.9462513 -7.042032e-05     15811.39
      8300.4  0.003453243    0.9462357 -1.422855e-05     15801.99
      8300.6  0.003338781    0.9463372 0.0001411355     15793.42
      8300.8  0.003225211    0.9462992 0.0001171291     15787.23
        8301  0.003181174    0.9463642 -5.755346e-05     15782.84
      8301.2  0.003095505    0.9463294 -0.0001475923     15779.31
      8301.4  0.003092242    0.9462912 -0.0003477497     15776.86
      8301.6  0.003224627    0.9461811 -0.0003346253     15776.27
      8301.8  0.003274105     0.946086 -0.0003542916     15775.53
        8302  0.003335813    0.9460617 -0.0003820461     15775.17
      8302.2  0.003438469    0.9460077 -0.0003633336     15775.26
      8302.4   0.00352288    0.9458755 -0.0004176908     15774.36
      8302.6    0.0035519    0.9457953 -0.0005117836     15772.48
      8302.8  0.003634493    0.9457276 -0.0004788669     15770.57
        8303  0.003732833    0.9455983 -0.0003803849     15767.32
      8303.2  0.003769884    0.9454924 -0.0003317503     15762.55
      8303.4  0.003849957     0.945491 -6.143057e-05     15756.47
      8303.6  0.004015047    0.9454622 -7.533142e-06     15749.03
      8303.8  0.004132063    0.9455492 -0.0002261047      15739.1
        8304  0.004329736    0.9454864 -0.0002235065     15726.71
      8304.2   0.00471676    0.9453101 -0.0004559423     15711.54
      8304.4  0.005037924    0.9452834 -0.0004014078     15690.45
      8304.6  0.005385157    0.9451844 -0.0003040435     15662.89
      8304.8  0.005938444    0.9451653 -0.0005977489      15627.6
        8305  0.006571453    0.9450669 -0.0006905503     15581.21
      8305.2  0.007210215    0.9448052 -0.0007994694      15523.4
      8305.4  0.007848876     0.944632 -0.0006235508     15455.58
      8305.6  0.008168008    0.9445257 -0.0001271754     15378.03
      8305.8  0.008300329     0.944568 0.0003280621      15301.5
        8306  0.008056798    0.9447034 0.0005858886     15229.44
      8306.2  0.007694379    0.9448944 0.0007433782      15169.7
      8306.4  0.007126397    0.9449944 0.0006966992     15127.52
      8306.6  0.006394927    0.9451627 0.0005338895     15104.97
      8306.8  0.005642146    0.9452608 0.0005846181     15103.77
        8307  0.005038331    0.9453215 0.0004348687     15122.82
      8307.2  0.004604727    0.9454621 0.0004019851     15155.14
      8307.4  0.004310272    0.9455106 0.0004658794     15197.16
      8307.6  0.004095923    0.9455824 0.0004190737     15247.62
      8307.8  0.003911404    0.9456942 0.0004384206     15303.24
        8308  0.003754138    0.9457973 0.0004689927     15361.78
      8308.2  0.003496457    0.9458614 0.0003936052     15422.06
      8308.4  0.003420778    0.9459576 0.0003709624     15485.42
      8308.6   0.00331539    0.9460091 0.0002396406     15551.04
      8308.8  0.003337356    0.9460941 -8.431636e-05     15616.11
        8309    0.0035984    0.9460531 -0.0004268252     15676.13
      8309.2   0.00397728    0.9458901 -0.0007376824     15726.34
      8309.4  0.004486541    0.9456677 -0.0009552741     15766.16
      8309.6  0.005004698     0.945504 -0.0008744823     15792.76
      8309.8  0.005632111    0.9452889 -0.0005530218     15805.74
        8310  0.006079961    0.9451906 -0.0003158544     15807.96
      8310.2  0.006293837    0.9452253 -0.0001198951     15803.01
      8310.4  0.006160996    0.9452513 0.0001143469     15794.33
      8310.6  0.006114369    0.9451929 3.670066e-05      15788.3
      8310.8   0.00601049     0.945282 -0.0001362813     15785.34
        8311  0.005806501    0.9452546 -0.0001859822     15786.27
      8311.2  0.005638748    0.9451423 -0.0005782817     15792.54
      8311.4  0.005662978    0.9450442 -0.0006112103     15800.08
      8311.6  0.005938209    0.9448194 -0.0003729759     15803.41
      8311.8  0.006087842    0.9447656 -4.823815e-05     15796.44
        8312  0.006155565    0.9448439 0.0004986424     15784.41
      8312.2  0.006142306    0.9450056 0.0006580064      15770.6
      8312.4  0.006103198    0.9452183 0.0006209956      15756.6
      8312.6  0.005992061    0.9452921 0.0003544037     15743.77
      8312.8  0.005876354    0.9453407 -8.553426e-06     15734.26
        8313  0.005925512    0.9452891 -0.0002660521     15727.63
      8313.2   0.00627465    0.9452115 -0.0006054514     15717.22
      8313.4  0.006971864    0.9450792 -0.0007622717     15696.31
      8313.6  0.007777309    0.9448563 -0.0008564246     15660.93
      8313.8  0.008666506    0.9446793 -0.0006581389     15606.55
        8314  0.009432066    0.9445263 -0.0002141644     15535.49
      8314.2   0.01001918    0.9445527 0.0001621473     15454.71
      8314.4   0.01030162     0.944685 0.0005920868      15370.2
      8314.6   0.01024785     0.944809 0.0009230749     15292.76
      8314.8  0.009928002        0.945  0.001157529     15229.23
        8315  0.009369134    0.9452912  0.001386451      15184.1
      8315.2  0.008628054     0.945611  0.001463267     15163.63
      8315.4  0.007943567    0.9459182  0.001274971     15166.88
      8315.6  0.007487097    0.9461706 0.0009079717     15188.06
      8315.8  0.007116985    0.9463111 0.0007684477     15222.58
        8316  0.006950077    0.9463374 0.0005351024      15263.6
      8316.2  0.006809133    0.9465329  0.000553298     15306.48
      8316.4  0.006689164    0.9465987 0.0008400606     15349.32
      8316.6  0.006631235    0.9467538 0.0008660943     15393.11
      8316.8  0.006412383    0.9470094   0.00093889      15436.5
        8317  0.006239173    0.9472258 0.0007564087     15481.11
      8317.2  0.006105285    0.9473498 0.0004204704     15526.24
      8317.4  0.005986453    0.9473589 0.0002022289     15570.71
      8317.6   0.00599877    0.9473458 -0.0001280433     15615.07
      8317.8  0.006085605    0.9473876 -0.0001190094     15658.57
        8318  0.006415023    0.9472474 -0.0001103514     15700.14
      8318.2  0.006668937    0.9472637 -3.851704e-05     15736.14
      8318.4   0.00699946    0.9472575 0.0003106984     15767.18
      8318.6  0.007312097    0.9473568   0.00043554     15792.88
      8318.8  0.007599398    0.9474959 0.0005799288     15814.84
        8319  0.007932537    0.9476121 0.0006241338      15833.7
      8319.2  0.008197829    0.9477215 0.0005898897     15849.11
      8319.4  0.008352878    0.9478561 0.0005754539     15861.48
      8319.6  0.008537777    0.9479678 0.0006663574     15872.37
      8319.8  0.008689367    0.9480725 0.0007229037     15881.85
        8320  0.008754403    0.9482546 0.0007231504     15890.73
      8320.2  0.008831396    0.9484344 0.0007853503     15898.95
      8320.4  0.008957163    0.9485464 0.0008072209     15906.41
      8320.6  0.009007683    0.9487008 0.0008235104     15912.91
      8320.8  0.008939662    0.9489003 0.0009910094     15917.89
        8321  0.008903934    0.9490932 0.0009580401     15922.91
      8321.2  0.008883474    0.9493392 0.0009961561      15927.9
      8321.4  0.008987071    0.9494672  0.001070982     15932.67
      8321.6  0.009089462    0.9496973  0.001096793     15937.74
      8321.8  0.009214109      0.94995  0.001227604     15942.88
        8322  0.009307506    0.9502166  0.001227109      15948.1
      8322.2  0.009331169    0.9504493  0.001341529     15952.86
      8322.4  0.009457114    0.9506789   0.00133896     15958.65
      8322.6  0.009538915    0.9510232  0.001351539     15965.02
      8322.8  0.009467395    0.9512878  0.001629098     15971.14
        8323   0.00946739    0.9515305   0.00163176     15978.36
      8323.2  0.009394508    0.9519822  0.001730257     15985.89
      8323.4  0.009493047    0.9523286  0.001847116     15993.72
      8323.6  0.009565341     0.952672  0.001658007     16001.39
      8323.8  0.009696863    0.9530082  0.001658715     16009.23
        8324  0.009800053    0.9533086   0.00168466      16016.3
      8324.2  0.009873508    0.9536556  0.001808238     16022.32
      8324.4  0.009967041    0.9540197  0.002099851     16027.47
      8324.6   0.01016828    0.9544548   0.00218713     16032.12
      8324.8   0.01036145    0.9549885  0.002339703      16036.2
        8325   0.01051126    0.9554053  0.002512923      16039.1
      8325.2   0.01067429    0.9558915  0.002707473      16041.6
      8325.4   0.01079486    0.9564651  0.003074648     16043.47
      8325.6   0.01092041    0.9571545  0.003283264     16045.16
      8325.8   0.01103428     0.957865  0.003402033     16046.69
        8326   0.01117229    0.9585181   0.00346176     16047.93
      8326.2   0.01125649    0.9591868  0.003677999     16048.67
      8326.4   0.01136706    0.9599239  0.003973874     16049.75
      8326.6   0.01136728    0.9608074   0.00430863     16050.09
      8326.8   0.01165172    0.9616972  0.004601726     16051.64
        8327   0.01182099    0.9626337  0.004681477     16052.75
      8327.2   0.01197577    0.9636053  0.005099476     16053.75
      8327.4   0.01218739    0.9645526  0.005571645     16054.92
      8327.6   0.01236103    0.9657768  0.005981155     16055.91
      8327.8   0.01251593     0.967091  0.006512366     16056.86
        8328   0.01266803    0.9683902  0.006897944     16057.61
      8328.2   0.01306199    0.9697625   0.00725925     16059.58
      8328.4   0.01325805    0.9712951  0.007837612     16060.24
      8328.6   0.01351982    0.9728984   0.00856016      16061.4
      8328.8   0.01371109    0.9746603  0.009450791     16061.85
        8329    0.0139058    0.9766106   0.01052668     16062.63
      8329.2   0.01411712    0.9788558   0.01159086     16063.23
      8329.4   0.01433646    0.9813197   0.01287627     16064.01
      8329.6   0.01464494     0.983933   0.01425845     16064.49
      8329.8   0.01505098    0.9869116   0.01623587     16066.27
        8330   0.01542153    0.9902625   0.01901259     16067.18
      8330.2    0.0158151    0.9943084   0.02241505     16067.77
      8330.4   0.01628951    0.9991431   0.02641807     16069.08
      8330.6   0.01680854     1.004844   0.03102231     16069.95
      8330.8   0.01737197     1.011397   0.03715859     16070.43
        8331   0.01809856     1.019126    0.0447351     16071.51
      8331.2   0.01884389      1.02887   0.05430952      16072.1
      8331.4   0.01966432     1.040632   0.06566342     16072.82
      8331.6   0.02065391     1.054845    0.0779159     16073.88
      8331.8   0.02173272     1.071657   0.09124145     16074.32
        8332   0.02283332     1.091203    0.1047758     16074.09
      8332.2   0.02421366     1.113625    0.1173465     16074.94
      8332.4    0.0256901     1.138665    0.1284095     16074.59
      8332.6   0.02749517     1.165534    0.1375575     16074.83
      8332.8   0.02955208      1.19393    0.1437739     16075.18
        8333   0.03184598     1.223671    0.1475925     16074.89
      8333.2   0.03441243     1.253684    0.1482624     16074.81
      8333.4      0.03706     1.283608    0.1459415     16074.45
      8333.6   0.03980069      1.31254     0.142728     16073.64
      8333.8   0.04247843     1.340424    0.1388687     16073.66
        8334   0.04509508     1.367867    0.1342442      16073.7
      8334.2   0.04741435     1.394703    0.1284198     16073.04
      8334.4    0.0494794     1.419936    0.1210655     16072.92
      8334.6    0.0510793      1.44316    0.1120359     16073.15
      8334.8   0.05212945     1.464719    0.1032854     16073.45
        8335   0.05261512     1.484332   0.09528508     16073.48
      8335.2   0.05261013     1.502564   0.08692517     16073.25
      8335.4   0.05238159     1.519388   0.07860063     16073.63
      8335.6   0.05188087     1.534259   0.07067525     16073.74
      8335.8    0.0515378     1.547212   0.06288445     16074.22
        8336   0.05128196     1.559104    0.0568556     16074.83
      8336.2   0.05117407     1.569696   0.05224609     16075.43
      8336.4   0.05136446     1.579744   0.04818406     16076.75
      8336.6   0.05146968     1.589009   0.04485988     16076.88
      8336.8   0.05192129     1.597651   0.04212807     16077.68
        8337   0.05258943     1.605583   0.04056136     16078.67
      8337.2   0.05353106     1.613446    0.0402772     16079.96
      8337.4   0.05469922     1.621458   0.04174449     16081.34
      8337.6   0.05596313     1.629873   0.04404626     16082.05
      8337.8   0.05742523     1.638979    0.0470713     16083.44
        8338   0.05907192     1.648683   0.05071067     16084.77
      8338.2   0.06088076     1.659115   0.05419745     16085.76
      8338.4   0.06295801     1.670442   0.05751902      16087.7
      8338.6    0.0651944     1.682337   0.06027152     16089.07
      8338.8   0.06758807     1.694698   0.06247728     16090.27
        8339   0.07017639     1.707333   0.06399457     16090.63
      8339.2   0.07302972     1.720423   0.06468864     16091.43
      8339.4   0.07619148     1.733533    0.0642239     16092.21
      8339.6   0.07964756     1.746449   0.06255238     16093.02
      8339.8   0.08332803     1.758712   0.06076192     16093.23
        8340    0.0874367     1.770465   0.05928595     16094.43
      8340.2   0.09176052     1.782142   0.05878054     16094.81
      8340.4   0.09675823     1.793878   0.05812154     16095.33
      8340.6    0.1023384     1.805736   0.05757416     16095.56
      8340.8    0.1083894     1.816963   0.05694703     16095.95
        8341    0.1149697     1.828202   0.05692445      16096.5
      8341.2    0.1223175     1.839436   0.05875604     16097.19
      8341.4    0.1308377     1.851276   0.06138155     16097.92
      8341.6    0.1405063     1.863967   0.06476217     16098.17
      8341.8    0.1514749     1.877307    0.0681302     16098.76
        8342     0.163297     1.891245   0.07152088     16098.93
      8342.2    0.1761432      1.90578    0.0762649     16099.44
      8342.4    0.1904082     1.921184   0.08179613     16100.76
      8342.6    0.2063568     1.938319   0.08784118      16101.6
      8342.8    0.2234281     1.956682   0.09338314     16102.36
        8343    0.2414955     1.976053   0.09808557      16103.2
      8343.2     0.259974     1.995891    0.1023714     16103.87
      8343.4    0.2790888     2.016787    0.1063137     16104.68
      8343.6    0.2985872     2.038579    0.1101517      16105.3
      8343.8    0.3183298     2.061104    0.1134923     16105.68
        8344    0.3379803     2.084012    0.1167527     16105.94
      8344.2    0.3576404     2.107581    0.1196838      16106.4
      8344.4    0.3771066     2.131982    0.1228051     16106.46
      8344.6    0.3969545     2.156851    0.1254457     16106.75
      8344.8    0.4166168     2.182256    0.1271329     16107.39
        8345    0.4360813     2.207938    0.1292195      16107.5
      8345.2    0.4556749     2.233688    0.1314558     16108.09
      8345.4    0.4761979     2.260226    0.1326185        16109
      8345.6    0.4971694     2.287421    0.1337753     16109.59
      8345.8     0.518613     2.314032    0.1340295     16110.22
        8346     0.539963     2.340708    0.1327645     16111.33
      8346.2     0.561847      2.36745    0.1319386     16112.85
      8346.4     0.584162     2.393632    0.1314302     16114.02
      8346.6     0.607358     2.419583    0.1300416     16114.95
      8346.8    0.6314298     2.445852      0.12639     16115.81
        8347    0.6558569     2.471483    0.1224864      16116.5
      8347.2    0.6799189     2.494744    0.1167177     16117.11
      8347.4    0.7043264     2.517572    0.1102376      16117.6
      8347.6    0.7293119     2.539226     0.104641     16118.44
      8347.8    0.7553495     2.559673    0.0970617     16119.39
        8348    0.7813592     2.578457   0.08841952     16119.76
      8348.2    0.8071401     2.595222   0.07835952     16120.06
      8348.4    0.8326506     2.609962   0.06844029     16120.54
      8348.6    0.8579455     2.622361   0.05915197     16120.27
      8348.8    0.8837825     2.633209   0.05115052     16119.96
        8349    0.9099467     2.642543   0.04334706      16119.5
      8349.2    0.9362156     2.650882   0.03565245     16119.02
      8349.4    0.9627266     2.657039    0.0287996     16119.19
      8349.6    0.9898328     2.661731    0.0209546     16118.99
      8349.8     1.017578     2.665583   0.01535872     16118.82
        8350       1.0459     2.667646    0.0103522     16118.77
      8350.2     1.074821     2.669326  0.004536023     16118.47
      8350.4     1.104515     2.670013  0.001404197      16118.7
      8350.6     1.135233     2.669212 -0.002233588     16119.15
      8350.8     1.166653      2.66877 -0.005411517     16119.72
        8351     1.198761     2.667539 -0.007245713     16119.95
      8351.2     1.230724     2.665684  -0.01008466     16120.47
      8351.4     1.262266     2.663415  -0.01233703     16120.85
      8351.6     1.294278     2.660702  -0.01465406     16121.24
      8351.8     1.326622     2.657669  -0.01627788     16121.28
        8352     1.358844     2.653961  -0.01703438     16121.45
      8352.2      1.38956     2.650393  -0.01623333     16121.39
      8352.4     1.418651     2.647074  -0.01474722      16120.9
      8352.6     1.446614     2.644682  -0.01312716     16121.28
      8352.8     1.473478     2.642163  -0.01197113     16121.38
        8353     1.498581     2.639891  -0.01077108     16121.51
      8353.2     1.521791     2.637497 -0.007971825     16121.86
      8353.4     1.541131     2.636066 -0.005486663     16122.71
      8353.6     1.557158     2.635785 -0.0002592883     16123.49
      8353.8     1.569113     2.635502  0.004195912     16123.79
        8354      1.57671      2.63729  0.008730383     16124.25
      8354.2     1.579299     2.639422   0.01290065     16124.45
      8354.4     1.576941      2.64277    0.0176702     16125.55
      8354.6     1.569315     2.645822   0.02213616     16126.31
      8354.8     1.556663     2.651426   0.02624761     16127.19
        8355     1.539904     2.657131   0.03141652      16128.2
      8355.2     1.519004     2.663768   0.03445655     16128.22
      8355.4     1.495101     2.670956   0.03725484     16129.45
      8355.6      1.46873     2.678991   0.03842647     16129.96
      8355.8     1.440461     2.686935   0.03959311        16131
        8356     1.410756     2.694509   0.04008735     16132.29
      8356.2     1.380361      2.70263   0.03978544     16132.79
      8356.4     1.350274     2.711061   0.03945666     16133.69
      8356.6     1.320814     2.718763   0.03840361     16134.07
      8356.8      1.29177     2.726074   0.03437094     16135.18
        8357     1.263867     2.733353   0.03092641     16136.06
      8357.2     1.237319     2.738558   0.02638662     16136.99
      8357.4     1.213519     2.743505   0.02167029     16137.65
      8357.6     1.191586     2.747184   0.01661717     16138.48
      8357.8     1.171353     2.750689    0.0118504     16138.89
        8358     1.152786     2.751852  0.007842416      16139.5
      8358.2     1.136072     2.752985  0.002439598     16140.64
      8358.4     1.121287     2.753457 -0.001898676      16141.8
      8358.6      1.10879     2.752641 -0.006177931     16142.96
      8358.8     1.097512     2.750333  -0.01035015     16143.67
        8359     1.087621     2.748043  -0.01468478     16144.44
      8359.2     1.078721     2.745177  -0.01656839     16144.65
      8359.4     1.071353     2.740893  -0.01895483     16145.96
      8359.6     1.065002     2.737078  -0.02049522     16146.57
      8359.8     1.059627     2.732879  -0.02069173     16146.79
        8360     1.055241     2.728781  -0.02139929     16147.67
      8360.2     1.051352      2.72434  -0.02191621     16148.39
      8360.4      1.04783     2.719959  -0.02190644     16148.99
      8360.6     1.044665     2.715346  -0.02156908     16149.94
      8360.8     1.041814     2.711256  -0.01998378     16150.64
        8361     1.039084     2.707084  -0.01882632     16150.73
      8361.2     1.036686     2.703972  -0.01821317     16151.92
      8361.4     1.034402     2.700285   -0.0167651     16152.83
      8361.6     1.032163     2.696685  -0.01772138     16153.53
      8361.8     1.029975     2.693672   -0.0172234     16154.49
        8362     1.027801     2.689795  -0.01765865     16155.92
      8362.2     1.025664     2.686506  -0.01752773     16156.76
      8362.4     1.023552     2.682559  -0.01709963     16157.96
      8362.6     1.021418      2.67965  -0.01757998     16158.56
      8362.8     1.019337     2.676115  -0.01692531     16159.47
        8363     1.017179     2.672442  -0.01924474     16160.65
      8363.2     1.014941     2.669018   -0.0203075     16160.92
      8363.4     1.012715     2.664254  -0.02144563     16162.12
      8363.6     1.010769     2.659869   -0.0224024     16163.28
      8363.8     1.008856     2.655285  -0.02269392     16164.06
        8364     1.007206     2.651096  -0.02352995     16165.95
      8364.2     1.005709     2.646099  -0.02385285     16166.98
      8364.4      1.00437     2.641045  -0.02477254     16167.57
      8364.6     1.003157     2.636203   -0.0246002     16168.29
      8364.8     1.002449     2.631278  -0.02447337      16169.7
        8365     1.002018     2.626419  -0.02410489     16170.93
      8365.2     1.001856     2.621466  -0.02299818     16171.64
      8365.4     1.002202     2.616919  -0.02143171     16172.61
      8365.6     1.003017      2.61288  -0.01969558        16174
      8365.8     1.004217     2.609274  -0.01815222     16174.92
        8366     1.005711      2.60571  -0.01700298     16175.74
      8366.2     1.007538     2.602397  -0.01570595     16176.72
      8366.4     1.009568     2.599277  -0.01416112      16177.4
      8366.6     1.011995     2.596709  -0.01250364     16178.26
      8366.8     1.014618     2.594381  -0.01079599     16179.32
        8367     1.017429     2.592395 -0.009238755      16180.1
      8367.2     1.020414     2.590641 -0.008506902     16181.09
      8367.4     1.023457     2.589318 -0.008429292     16182.47
      8367.6     1.026582     2.587575 -0.007911651     16183.92
      8367.8     1.029571     2.585651 -0.007673001     16184.91
        8368     1.032432     2.584311  -0.00642898     16186.01
      8368.2     1.035134      2.58318 -0.006180754     16187.28
      8368.4     1.037582     2.582432 -0.004886306        16188
      8368.6     1.039772     2.580706 -0.004448019     16189.09
      8368.8     1.041508     2.580402  -0.00387084     16190.29
        8369     1.042854     2.579621 -0.001789554     16191.42
      8369.2     1.043791     2.579335 -0.002318067     16192.95
      8369.4     1.044196     2.579275 -0.001382026     16194.39
      8369.6     1.044075     2.578548 -0.001925971     16195.16
      8369.8     1.043367     2.578516 -0.001331507     16195.66
        8370     1.042386     2.577795 0.0004475252     16196.77
      8370.2     1.040796      2.57821 0.0007006494     16197.31
      8370.4     1.038844     2.578906  0.002929529     16197.84
      8370.6     1.036459     2.579076  0.003875026     16198.88
      8370.8      1.03362     2.580138  0.003655063      16200.1
        8371     1.030482      2.58131  0.006058713     16200.66
      8371.2     1.027223      2.58183  0.007062153     16201.52
      8371.4     1.023787     2.583923  0.008140148     16202.99
      8371.6     1.019952     2.585788    0.0101934     16203.49
      8371.8     1.015991     2.587822    0.0106256     16204.43
        8372     1.011796     2.589985   0.01220645     16205.17
      8372.2     1.007546     2.592424   0.01294296     16205.93
      8372.4     1.003179     2.595553   0.01462867     16206.59
      8372.6    0.9987059     2.598176   0.01581265      16206.7
      8372.8    0.9942793     2.601688   0.01626023     16207.36
        8373    0.9897707     2.605074   0.01760564     16208.24
      8373.2    0.9851961     2.608561    0.0185422     16208.55
      8373.4    0.9804529     2.612261   0.01914226     16209.29
      8373.6    0.9756677     2.616521   0.02080382     16209.64
      8373.8    0.9708364     2.620387   0.02210541     16209.92
        8374    0.9659179     2.625204   0.02224796     16210.81
      8374.2     0.961099     2.629945   0.02357296     16211.45
      8374.4    0.9561123      2.63432   0.02381189     16211.38
      8374.6    0.9510412     2.639246   0.02404728      16212.4
      8374.8     0.945907     2.644254   0.02457967      16213.2
        8375    0.9408709     2.649183    0.0248399     16214.55
      8375.2    0.9358533     2.653983   0.02497554     16215.27
      8375.4     0.930763     2.659118   0.02624728     16215.52
      8375.6    0.9256308     2.664234   0.02724911     16216.23
      8375.8    0.9203549     2.670181   0.02786262     16216.56
        8376    0.9149816     2.675783   0.02902131     16217.41
      8376.2    0.9100264     2.681408   0.02842292     16218.31
      8376.4    0.9050935     2.687451   0.02913625     16218.84
      8376.6    0.9002369     2.692919   0.02953112     16220.22
      8376.8    0.8955344     2.699092   0.02927297     16221.02
        8377    0.8908838     2.705033   0.03073899     16221.78
      8377.2    0.8864079      2.71087   0.03054976        16223
      8377.4     0.882089      2.71751   0.02986188     16223.74
      8377.6    0.8780087     2.723531   0.03085042     16224.71
      8377.8    0.8742127     2.728922   0.02960188     16225.48
        8378    0.8704831      2.73555   0.02922005     16226.65
      8378.2    0.8669009     2.741192   0.03005022     16227.21
      8378.4    0.8633995     2.746908    0.0292952     16227.44
      8378.6    0.8600648     2.752962   0.02998794     16228.23
      8378.8    0.8569069     2.758986   0.02993497      16228.8
        8379    0.8538467     2.765182   0.02894013     16229.52
      8379.2    0.8508936     2.770856   0.02787746     16230.17
      8379.4    0.8481757     2.776115   0.02643716     16231.17
      8379.6     0.845464     2.781288   0.02570624     16231.62
      8379.8    0.8428661     2.786332   0.02494934     16232.65
        8380    0.8403045     2.791421   0.02433722      16233.2
      8380.2    0.8379239     2.796074   0.02268471     16233.79
      8380.4    0.8356476     2.800758   0.02174265     16234.38
      8380.6     0.833527      2.80448   0.02064204     16235.34
      8380.8    0.8313893     2.808815   0.01805731     16236.36
        8381    0.8293984     2.812588   0.01659645     16236.84
      8381.2     0.827682     2.815204   0.01404985     16238.44
      8381.4    0.8260208     2.817757   0.01170437     16239.13
      8381.6    0.8244743     2.820055   0.01034381     16239.52
      8381.8    0.8229381     2.821951  0.008572303     16240.36
        8382    0.8214969     2.823479  0.007052984        16241
      8382.2      0.82017     2.824615  0.005456016     16241.51
      8382.4      0.81893     2.825697  0.003156533     16242.58
      8382.6    0.8179497     2.826316  0.001393076     16243.69
      8382.8     0.816978     2.826004 -0.001084474     16244.36
        8383    0.8161244     2.825729  -0.00390262      16245.3
      8383.2    0.8154959     2.824829 -0.004832229     16246.46
      8383.4    0.8150111     2.823194 -0.007833382     16246.99
      8383.6    0.8147404     2.822138 -0.009149999     16247.84
      8383.8    0.8145065     2.819462  -0.00997977      16248.9
        8384    0.8145505     2.817509  -0.01220934     16250.27
      8384.2    0.8146343      2.81521  -0.01278344     16250.66
      8384.4    0.8148178     2.812371  -0.01451086     16251.46
      8384.6    0.8150609     2.809236  -0.01602973     16251.97
      8384.8    0.8153723     2.805901  -0.01748325     16252.74
        8385    0.8157864     2.802386  -0.01899389     16252.81
      8385.2    0.8164629     2.798384  -0.02064524      16253.8
      8385.4    0.8171436      2.79404  -0.02215762      16254.9
      8385.6    0.8178858     2.789384  -0.02304003     16255.36
      8385.8    0.8187442      2.78466  -0.02400752     16255.35
        8386    0.8197085     2.779952  -0.02504489     16256.21
      8386.2    0.8207652     2.774834  -0.02539372      16256.5
      8386.4    0.8219231     2.769349  -0.02701482     16257.28
      8386.6    0.8231443     2.764345   -0.0281636     16258.64
      8386.8    0.8244111      2.75834  -0.02911657     16259.07
        8387    0.8258382     2.752304  -0.03057317     16260.01
      8387.2    0.8271388     2.746055  -0.03061097     16260.36
      8387.4    0.8285562     2.739887  -0.03141519     16260.72
      8387.6    0.8300917     2.733852  -0.03119084     16261.28
      8387.8    0.8317538     2.727171  -0.03105236      16262.6
        8388    0.8333046     2.721103  -0.03136518     16263.42
      8388.2    0.8348997     2.715045  -0.03097288     16263.87
      8388.4    0.8367674     2.708759  -0.03094073     16265.63
      8388.6    0.8384916     2.702393  -0.03081746      16266.4
      8388.8    0.8401086      2.69635  -0.02904271     16266.82
        8389    0.8418452     2.690391  -0.02794316     16267.68
      8389.2    0.8437655     2.685525  -0.02750392     16269.09
      8389.4    0.8453906     2.680039  -0.02751352     16269.35
      8389.6    0.8470514     2.674347  -0.02724274     16269.53
      8389.8     0.848874      2.66838  -0.02659348      16270.2
        8390    0.8507394     2.663731  -0.02513896     16270.81
      8390.2     0.852586     2.658764  -0.02385021     16271.34
      8390.4    0.8544355     2.654236  -0.02374253     16271.59
      8390.6    0.8562585       2.6493  -0.02365837     16272.11
      8390.8    0.8580332     2.644737  -0.02330939     16272.37
        8391    0.8598401     2.639837  -0.02310035     16272.18
      8391.2    0.8618047     2.635588  -0.02295264     16273.23
      8391.4    0.8637787      2.63082  -0.02185267     16273.77
      8391.6    0.8658784     2.626375  -0.02151631     16274.55
      8391.8    0.8678602     2.622355  -0.02034895     16274.66
        8392    0.8700035     2.618375  -0.01965096     16275.55
      8392.2    0.8721739      2.61454  -0.01934292     16276.42
      8392.4    0.8743317     2.610654  -0.01868726     16277.23
      8392.6     0.876547     2.606881  -0.01783202     16277.53
      8392.8    0.8787834     2.603425  -0.01680657     16278.05
        8393    0.8810727     2.600275  -0.01611101     16278.11
      8393.2    0.8836864     2.597209  -0.01560236     16279.78
      8393.4    0.8862396     2.593992  -0.01498453     16280.53
      8393.6    0.8887408     2.590943   -0.0140963     16280.69
      8393.8    0.8915265     2.588287  -0.01280482     16282.15
        8394    0.8943379     2.585932  -0.01208273     16283.15
      8394.2    0.8971271     2.583748  -0.01126321     16283.34
      8394.4    0.9000285     2.581277  -0.01042952     16284.34
      8394.6     0.903095     2.579277 -0.009813949     16285.11
      8394.8    0.9062235     2.577588 -0.008184182     16285.99
        8395    0.9094488     2.575897 -0.007223381     16286.47
      8395.2    0.9125386      2.57473 -0.006313072      16286.6
      8395.4     0.915844     2.573498 -0.005472441     16287.48
      8395.6    0.9191126     2.572538 -0.005026503     16288.02
      8395.8    0.9223196     2.571519 -0.003718494     16288.72
        8396    0.9256469     2.570709  -0.00316742     16289.54
      8396.2    0.9291294     2.570523 -0.002315421     16290.61
      8396.4    0.9324272     2.570004 -0.001811496     16291.44
      8396.6    0.9358751     2.569666 -0.001424938     16292.56
      8396.8    0.9393717      2.56926 -0.0007409067     16293.27
        8397    0.9428168     2.569383 -0.0001913378     16294.19
      8397.2    0.9462932     2.569411 -7.145038e-05      16295.4
      8397.4    0.9497585     2.569513 -0.0002334058     16296.19
      8397.6    0.9532811     2.569202 -0.0004979345     16296.78
      8397.8    0.9567978     2.569196 -0.0003823026      16296.6
        8398    0.9602683     2.569013 0.0002465449     16296.96
      8398.2    0.9636292     2.569208 0.0003827538     16297.33
      8398.4    0.9669275       2.5694  0.000519204     16297.92
      8398.6    0.9700816     2.569503 -2.037332e-06     16298.21
      8398.8    0.9732962     2.569428 -0.0003077441     16298.77
        8399    0.9764797     2.569206 -0.0006505901     16299.21
      8399.2    0.9795786     2.569153 -0.0009598079     16300.16
      8399.4    0.9826287     2.568982 -0.001219685     16300.63
      8399.6    0.9855329      2.56866 -0.002581577     16301.85
      8399.8    0.9885054     2.568303 -0.002908982     16302.66
        8400    0.9912125     2.567649 -0.002946117      16303.4
        8401     1.004577     2.564426 -0.003079805     16306.54
        8402     1.017432     2.561323 -0.002837901     16308.42
        8403      1.03065     2.558226  -0.00175997     16312.46
        8404     1.044301     2.556297 1.681019e-05     16316.41
        8405     1.058581     2.557386  0.002300431     16320.04
        8406     1.072462     2.561391  0.004461807     16324.38
        8407     1.084279     2.567427  0.006135153     16328.53
        8408     1.092931     2.574144   0.00688105     16333.54
        8409     1.098159     2.581927   0.00683886      16338.4
        8410     1.100311     2.588915  0.006563271     16342.59
        8411     1.099546     2.594783  0.006166444     16346.03
        8412     1.096471     2.600397  0.006229334     16349.61
        8413     1.091539     2.606592   0.00718461     16353.97
        8414      1.08561     2.613832  0.008619022     16359.27
        8415     1.078935     2.623521  0.009894443     16363.84
        8416     1.072131     2.634873   0.01097418     16368.07
        8417     1.065389      2.64617   0.01131408     16372.64
        8418     1.058607     2.657729   0.01105467     16378.36
        8419     1.051707     2.668778   0.01075095     16382.64
        8420     1.044596     2.679092   0.01061522     16385.74
        8421     1.037265     2.689174   0.01091367     16389.12
        8422     1.029568      2.70019   0.01165554        16393
        8423     1.021909     2.712432   0.01257522     16396.41
        8424     1.014941     2.725714   0.01333952     16398.33
        8425     1.009137     2.739475   0.01394056     16399.86
        8426      1.00433     2.753548   0.01398036     16402.65
        8427     1.000156     2.768195   0.01362627     16405.83
        8428    0.9963683     2.781636   0.01244706     16408.91
        8429    0.9930693      2.79398   0.01019559     16412.26
        8430    0.9903062     2.803336  0.007362151     16415.94
        8431     0.988102     2.808977    0.0038922     16420.71
        8432    0.9863262     2.811084 0.0001979648     16425.36
        8433    0.9853877     2.809549 -0.003503215     16429.09
        8434    0.9854155     2.804128 -0.007159717     16433.87
        8435    0.9858753     2.794964  -0.01048252     16437.36
        8436     0.986791     2.782446  -0.01314804      16441.2
        8437    0.9876245     2.767619  -0.01490018     16443.52
        8438    0.9886287     2.751536  -0.01602681     16446.85
        8439    0.9894272     2.735363   -0.0167669     16451.29
        8440    0.9902334     2.718338  -0.01694796     16457.16
        8441    0.9909251     2.700551   -0.0170783     16461.63
        8442    0.9911847     2.683744  -0.01681992     16464.92
        8443    0.9911566      2.66705  -0.01603968     16468.91
        8444    0.9909188     2.651059  -0.01498301     16472.81
        8445    0.9905435     2.636392  -0.01348421     16475.92
        8446    0.9900571     2.623812  -0.01198953     16478.36
        8447    0.9895687     2.613113  -0.01109462     16480.88
        8448    0.9893692       2.6031   -0.0110129     16485.47
        8449    0.9891992     2.592014  -0.01181145      16490.1
        8450    0.9891832      2.57976  -0.01325687     16495.41
        8451    0.9889423     2.565868  -0.01460243     16499.15
        8452    0.9886708     2.550073  -0.01554959     16502.74
        8453    0.9887728     2.533604  -0.01584141     16507.14
        8454    0.9892058     2.517562  -0.01524607     16510.65
        8455    0.9897623     2.502502  -0.01393054     16513.83
        8456     0.990504     2.489089  -0.01201656     16517.88
        8457    0.9912617     2.477882 -0.009551914     16521.88
        8458    0.9921734     2.469496 -0.006627572     16526.72
        8459    0.9928676     2.464294  -0.00362756     16530.35
        8460    0.9930963     2.462578 -0.0007117313     16533.19
        8461    0.9931238     2.463372   0.00204745     16536.84
        8462    0.9931431     2.466649  0.004488358     16541.82
        8463    0.9927443     2.472484  0.006658433     16544.82
        8464     0.991823     2.480532   0.00841583     16547.52
        8465    0.9903159     2.490006  0.009729456     16551.27
        8466    0.9885443     2.500312   0.01056166     16555.31
        8467    0.9863269     2.511402   0.01111206     16559.35
        8468    0.9831971     2.522779   0.01138987      16562.5
        8469     0.979193     2.534454   0.01125383     16565.53
        8470    0.9746599     2.545871   0.01061893     16568.93
        8471    0.9698387     2.556417  0.009493809     16572.06
        8472    0.9649042     2.565254  0.007865533     16574.78
        8473    0.9604686     2.572429  0.005970245     16578.23
        8474    0.9565668     2.577334  0.003902726     16582.44
        8475    0.9529549     2.580298  0.001848576     16585.72
        8476    0.9498473     2.580865 5.013296e-05     16588.54
        8477    0.9480903     2.579823 -0.001465128     16591.05
        8478    0.9472093     2.577534 -0.002207349     16594.28
        8479     0.947385     2.574438 -0.002448222     16597.77
        8480    0.9488216     2.572036 -0.001967027     16602.75
        8481    0.9512608      2.57003 -0.0005315963     16608.79
        8482     0.954402     2.569666  0.001493972     16614.33
        8483    0.9580425     2.572311  0.004459135     16618.53
        8484    0.9622129     2.578012  0.007883602      16622.3
        8485    0.9668356     2.587867   0.01154843     16624.44
        8486    0.9721074       2.6012   0.01489106     16626.55
        8487    0.9776203     2.618505   0.01755514     16629.49
        8488    0.9830973     2.637576   0.01927211     16633.29
        8489    0.9881213     2.658087   0.01953942     16636.51
        8490     0.993086     2.678289   0.01897602     16639.87
        8491    0.9976945     2.696663   0.01769431     16644.75
        8492     1.002004      2.71348   0.01557559     16650.83
        8493     1.005517     2.728865   0.01326907     16654.85
        8494     1.008966     2.740591    0.0106058     16658.31
        8495      1.01194     2.749739  0.007888779     16660.75
        8496      1.01464     2.755903  0.005621891     16664.17
        8497     1.016923      2.76042  0.003723405     16667.66
        8498     1.018952     2.763079   0.00218348     16669.88
        8499     1.020577     2.764633 0.0006769844     16672.67
        8500     1.021609     2.764637 -0.0008380884     16675.75
        8501     1.022558     2.763128 -0.002409474     16680.89
        8502     1.023842     2.759726 -0.004326772     16685.48
        8503     1.025074     2.754995 -0.006189935     16690.19
        8504      1.02645      2.74733 -0.008341754     16694.11
        8505      1.02825     2.738368  -0.01057233     16697.43
        8506     1.030282     2.726359   -0.0127927     16701.12
        8507     1.032415     2.712705  -0.01502493     16704.71
        8508     1.034322     2.696159   -0.0168406     16707.64
        8509     1.036385     2.678268  -0.01866345     16710.98
        8510     1.038472     2.658997  -0.02012898     16714.65
        8511     1.040216     2.638052   -0.0213556     16719.16
        8512     1.041841     2.615643  -0.02235855     16723.79
        8513     1.044345     2.592846  -0.02322384     16728.46
        8514     1.048499     2.569563    -0.023728     16729.51
        8515     1.052321     2.545156  -0.02408554      16717.2
        8516     1.054142     2.520731  -0.02421045     16695.27
        8517     1.055545     2.496504  -0.02353225     16687.45
        8518     1.056079     2.472721  -0.02210843     16686.89
        8519     1.055492     2.451027  -0.02018257     16686.79
        8520     1.055155     2.432298  -0.01769934     16686.46
        8521     1.053587     2.415773  -0.01467395     16689.61
        8522     1.050769     2.401924  -0.01138782     16694.15
        8523     1.048433     2.392331 -0.007831396     16699.03
        8524      1.04666     2.386746 -0.004170502     16705.32
        8525     1.045313     2.384448 -0.0006647379     16709.14
        8526     1.042082     2.385242  0.002489271     16711.27
        8527     1.037538     2.389672  0.005390875     16715.43
        8528     1.033735     2.396703  0.007974215      16723.2
        8529     1.029549     2.406011  0.009988929     16729.46
        8530     1.024759     2.417139   0.01145998     16731.66
        8531     1.020597     2.429628   0.01258264     16733.21
        8532     1.017308     2.442543   0.01301133     16735.98
        8533     1.013227     2.456342   0.01301124      16739.3
        8534      1.00749     2.469184   0.01259974     16741.46
        8535     1.002099     2.481673   0.01179769     16748.21
        8536    0.9978719     2.492942   0.01100223      16752.2
        8537    0.9942066     2.503533   0.01013567     16754.58
        8538    0.9918313     2.513193  0.009061139     16754.19
        8539    0.9885595     2.522216  0.007810264     16756.22
        8540    0.9842709     2.529187  0.006599591     16764.34
        8541    0.9813809     2.534774  0.005056193      16769.6
        8542    0.9798234     2.539591  0.003748099     16770.91
        8543    0.9781347     2.542441  0.002321993     16775.86
        8544    0.9775358     2.544179 0.0008495338     16782.13
        8545    0.9786367     2.544062 -0.0001813789     16786.17
        8546    0.9790321     2.542989 -0.001085874     16787.87
        8547    0.9790539     2.541715 -0.001687555     16790.85
        8548    0.9793055     2.539836 -0.002178444     16795.75
        8549    0.9800451     2.537311 -0.002491615     16800.44
        8550    0.9815526     2.534275 -0.002672335     16804.56
        8551    0.9826955     2.531749 -0.002878989     16810.82
        8552    0.9839661     2.529146 -0.002983815      16812.8
        8553    0.9858148     2.525796 -0.003142394     16814.68
        8554    0.9878857      2.52234 -0.003404651     16819.41
        8555    0.9892322     2.519179 -0.003611296     16822.86
        8556     0.991335     2.515528 -0.003795386      16826.6
        8557    0.9935719      2.51135 -0.004087451     16830.57
        8558    0.9951036     2.507159 -0.004283222      16836.2
        8559    0.9962747     2.502829 -0.004068594     16838.93
        8560    0.9971931     2.498395  -0.00364891     16839.17
        8561    0.9982251     2.495076 -0.002952541     16841.67
        8562    0.9992132     2.492563 -0.001854027     16847.57
        8563     1.000575     2.491019 -0.000474141     16852.36
        8564     1.001472     2.490979  0.001021495      16855.7
        8565     1.001328     2.493179  0.003021048     16860.19
        8566     1.001127     2.496649  0.004972856      16865.8
        8567     1.000765     2.503103  0.006581825     16869.04
        8568     1.001191      2.51087  0.008089071     16869.67
        8569     1.001497     2.519507  0.008917848     16873.83
        8570     1.001163     2.529005  0.009338118     16879.07
        8571     1.002241     2.538775  0.009408624     16886.23
        8572     1.003943     2.548223   0.00904024     16893.73
        8573     1.005101     2.557141  0.008435722     16900.06
        8574     1.006559     2.565166   0.00782099     16902.53
        8575     1.008057     2.572518  0.006982879     16904.66
        8576     1.008067     2.579507  0.006056425     16909.04
        8577     1.007868     2.585073  0.005204599     16913.26
        8578     1.008463     2.589392  0.004267903     16918.59
        8579     1.009331     2.593336  0.003323509     16925.14
        8580     1.010376     2.596578    0.0024022     16929.31
        8581     1.011504     2.598367  0.001525659     16932.77
        8582      1.01251     2.599001 0.0002859874      16937.8
        8583     1.012927     2.599439 -0.000795891     16942.05
        8584     1.013911     2.597722 -0.001795587     16943.27
        8585     1.015253     2.595183   -0.0031137     16944.25
        8586     1.015599     2.591818 -0.004286916     16946.21
        8587     1.015995     2.586984 -0.005475226     16947.93
        8588     1.017091     2.580575 -0.006805601     16949.59
        8589     1.018195     2.573282 -0.007835526     16953.16
        8590     1.019159     2.564596 -0.008793634        16961
        8591     1.019245     2.555642 -0.009710573     16965.35
        8592     1.018172       2.5454  -0.01043409     16965.86
        8593     1.017829      2.53444  -0.01120536     16966.46
        8594      1.01801      2.52286  -0.01151549     16970.58
        8595     1.017166      2.51082  -0.01163558     16974.74
        8596     1.015925     2.499338  -0.01140746     16977.73
        8597     1.015322     2.487898   -0.0111734     16980.08
        8598     1.014234      2.47723  -0.01091893     16981.31
        8599     1.012916     2.466127  -0.01055439     16984.92
        8600     1.011076     2.455662  -0.01005312      16990.8
        8601     1.008799      2.44568 -0.009169769     16994.98
        8602     1.006771     2.437017 -0.008238559     16995.44
        8603     1.004899     2.429448 -0.007117609     16999.23
        8604     1.003005     2.422708 -0.006176819     17006.14
        8605     1.001654      2.41721 -0.005361737     17013.35
        8606     1.000229      2.41231 -0.004338445     17016.75
        8607    0.9984885     2.408001 -0.003592733     17020.63
        8608    0.9972215     2.405354 -0.002718039     17026.04
        8609      0.99524     2.402839 -0.001868536     17028.38
        8610    0.9936271     2.401438 -0.001328742      17031.7
        8611    0.9932171     2.400526 -0.0007343838     17035.84
        8612    0.9936002     2.400039 -0.0003456859      17040.7
        8613    0.9939358     2.399901 -0.000109964     17042.62
        8614    0.9937319     2.400055 -0.0001574122      17045.1
        8615    0.9933831     2.400087 -0.0001308132     17049.61
        8616    0.9932825      2.39941 -0.0002259308     17052.22
        8617    0.9937445     2.399378 -0.0002275698     17053.47
        8618    0.9935111     2.399151 -0.0001246329     17054.97
        8619    0.9930909     2.399176 -0.0001827634      17056.2
        8620    0.9933478     2.398911 -0.0003359179     17056.31
        8621    0.9941562     2.398647 -0.0004376997     17051.79
        8622     0.995341     2.397808 -0.0003282935      17031.3
        8623      0.99664     2.397425 -0.0003398572     16948.25
        8624     0.996244     2.397598 -5.464933e-05     16818.06
        8625    0.9953539     2.397287 -0.0001354381     16840.77
        8626    0.9946584     2.397589 -0.0002916401      16898.6
        8627    0.9958945     2.396884 -7.988235e-05     17048.66
        8628    0.9970861     2.396431 -6.718747e-05     17088.77
        8629    0.9979971     2.396968 0.0002001479     17099.97
        8630    0.9988874      2.39732 0.0005817895     17105.25
        8631    0.9998551     2.397684 0.0009013842     17111.26
        8632     1.000367     2.398759   0.00117795     17116.62
        8633      1.00074     2.400573  0.001571191     17119.52
        8634     1.000822     2.402032  0.001829495      17121.4
        8635     1.000553     2.403969  0.001866895     17124.98
        8636     1.000283     2.406077    0.0021211     17130.25
        8637     1.000242     2.408041  0.002214232     17136.25
        8638     1.000162     2.410517  0.002148466     17138.87
        8639     1.000084     2.412826   0.00219014     17140.79
        8640     1.000242      2.41467  0.002022787     17143.39
        8641     1.000964     2.416802  0.001872309     17145.59
        8642      1.00161     2.418608  0.001844349     17147.47
        8643     1.002244     2.420315  0.001601833     17150.01
        8644     1.003059     2.422048  0.001518733     17153.36
        8645     1.003337     2.423209  0.001292497      17155.2
        8646     1.003248     2.424683  0.001133639     17160.76
        8647      1.00329     2.425485   0.00109643     17165.67
        8648     1.003686     2.426582  0.000920498     17169.55
        8649     1.004529     2.427595 0.0008573034        17175
        8650     1.004697     2.428365 0.0006548104     17180.32
        8651     1.004915     2.428914 0.0006672248      17185.7
        8652     1.005755     2.429202 0.0007670157     17190.33
        8653      1.00631     2.430264 0.0008287222     17193.37
        8654     1.007079     2.431433  0.001033235     17196.55
        8655     1.007806     2.432229  0.001034899     17201.15
        8656     1.008013     2.433335 0.0009930346     17205.58
        8657     1.008737     2.434403  0.001051683     17209.14
        8658     1.009711     2.435405   0.00114162     17211.78
        8659     1.010602     2.436436  0.001173223     17214.84
        8660     1.011493     2.437901  0.001345789     17216.69
        8661     1.012688     2.439096  0.001483972     17219.82
        8662      1.01322     2.440788  0.001548699     17223.57
        8663     1.013327     2.442372  0.001618828     17227.08
        8664     1.014001     2.444096   0.00152125     17230.83
        8665     1.014568     2.445571  0.001384117     17231.96
        8666     1.014584     2.446873  0.001224213     17232.96
        8667     1.014442     2.447908 0.0009715658     17237.28
        8668     1.014369     2.448993 0.0006364895     17241.78
        8669     1.014456     2.449458  0.000179543     17245.08
        8670      1.01501     2.449419 -0.0003972182     17249.79
        8671     1.014126     2.448627 -0.0009070826     17254.11
        8672     1.012431     2.447404 -0.001384681     17256.59
        8673     1.011397     2.445829 -0.001802141     17258.93
        8674     1.010855      2.44388  -0.00220456     17263.21
        8675     1.010331     2.441418 -0.002672373     17264.98
        8676     1.009491     2.438586 -0.003130499     17268.09
        8677     1.008091      2.43514 -0.003408991      17271.5
        8678     1.006549     2.431358   -0.0038337     17275.81
        8679     1.004931     2.427782 -0.003980434     17281.53
        8680     1.003555     2.423251 -0.004099472     17284.43
        8681     1.001644     2.419218 -0.004324127     17287.48
        8682    0.9997624      2.41496 -0.004357865     17292.37
        8683    0.9985436     2.410486   -0.0046451     17296.18
        8684    0.9974243     2.405819 -0.004640912     17297.86
        8685    0.9959027     2.400638 -0.004672793     17298.98
        8686    0.9941658     2.396397 -0.004620709     17300.73
        8687    0.9925093     2.391794 -0.004276036     17302.76
        8688    0.9914853     2.387336 -0.004070099     17305.95
        8689    0.9906268     2.383534   -0.0036587     17309.03
        8690    0.9899504     2.380116 -0.003255717      17312.6
        8691    0.9895269      2.37716 -0.002851082     17316.21
        8692    0.9895369     2.374314 -0.002493253     17318.91
        8693    0.9890761     2.372129 -0.002140619     17322.19
        8694    0.9886624     2.370143 -0.001623234      17326.8
        8695    0.9883858     2.368597 -0.001206304     17331.19
        8696    0.9879914     2.367821 -0.0008876048     17335.66
        8697    0.9878635     2.367304 -0.0005199852     17335.54
        8698    0.9879692     2.366593 -0.0003884131     17323.06
        8699    0.9878042     2.366517 -0.0003633766     17310.66
        8700     0.987552     2.366267 -0.0003424092     17315.48
        8701    0.9877454      2.36585 -0.0005373994     17327.17
        8702    0.9881466     2.365223 -0.0007642091     17340.51
        8703    0.9887443     2.364368 -0.001000218     17349.64
        8704    0.9890104      2.36321 -0.001435998     17354.44
        8705     0.989015      2.36185 -0.001810539     17355.23
        8706    0.9891832     2.359479 -0.002209434     17346.94
        8707    0.9892789     2.357125 -0.002649137     17337.86
        8708    0.9898253     2.354372 -0.002882098     17341.97
        8709    0.9901563     2.351253 -0.003242362     17352.14
        8710    0.9899821     2.347951 -0.003522995     17363.98
        8711     0.989596     2.344156 -0.003700636      17372.3
        8712    0.9891551      2.34028 -0.003885441     17378.18
        8713     0.988941     2.336451 -0.003795387     17383.32
        8714    0.9891439     2.332409 -0.003590714     17387.01
        8715    0.9889571     2.328974 -0.003238382     17391.47
        8716    0.9884316     2.325918 -0.002747499     17396.42
        8717    0.9878915     2.323497 -0.002321028     17399.68
        8718     0.987673     2.321419 -0.001742622     17403.34
        8719    0.9876887      2.31969 -0.001367905     17409.28
        8720    0.9876717     2.318947 -0.001013519     17413.57
        8721    0.9881377     2.318025 -0.0006750297     17417.15
        8722      0.98848     2.317365 -0.0007047929     17417.47
        8723    0.9886232      2.31699 -0.0005776661     17419.46
        8724    0.9888218     2.316128 -0.0005940244     17423.23
        8725    0.9893999     2.315715 -0.0007003642     17427.79
        8726    0.9895948     2.314989 -0.0005557056     17431.24
        8727    0.9897077     2.314189 -0.0004856976     17435.77
        8728    0.9900606     2.313905 -0.0004266922     17439.89
        8729    0.9902678     2.313772 -0.0003479267     17441.71
        8730    0.9906199     2.313282 -0.0002621093     17443.98
        8731    0.9913165     2.312797 -0.0003156083     17446.49
        8732     0.992416     2.312857 -0.0002070101      17450.9
        8733    0.9935248     2.312509 -5.91998e-05     17456.45
        8734    0.9945128     2.312454 -3.561727e-06     17461.93
        8735    0.9951595      2.31256  7.39261e-05     17465.37
        8736    0.9956421     2.312842 7.451711e-05     17467.15
        8737    0.9960499     2.312805 0.0001890981     17469.08
        8738    0.9969536     2.312752 0.0001187442     17474.29
        8739    0.9979112     2.313317 0.0002171785     17478.83
        8740     0.998671     2.313317 0.0003698163     17482.66
        8741    0.9992431     2.313674 0.0003396935        17484
        8742    0.9996441     2.314231  0.000467555     17484.65
        8743     1.000247     2.314675  0.000370206     17487.71
        8744     1.000751     2.315188 0.0003523052     17490.52
        8745     1.001289     2.315155 0.0003961987     17494.33
        8746     1.001814     2.315641 0.0003859233     17497.93
        8747     1.002257      2.31626 0.0005424016      17499.1
        8748     1.002911     2.316731 0.0005046178     17500.83
        8749     1.003679     2.317324 0.0004432362     17502.12
        8750     1.004752     2.317659 0.0004446366     17505.73
        8751     1.005563     2.318033 0.0004860864      17508.8
        8752     1.006132      2.31851 0.0005362963     17510.74
        8753     1.006294     2.319269 0.0004909312     17514.49
        8754     1.006747     2.319804 0.0004499136     17519.85
        8755     1.007612     2.319997 0.0003330369     17522.99
        8756     1.008292      2.32031 0.0002475428     17526.25
        8757     1.008754     2.320601 0.0002865478     17528.58
        8758     1.009012     2.320794 0.0003416502     17530.28
        8759     1.008815     2.321143  0.000357595     17532.94
        8760     1.008506     2.321676 0.0003154578     17537.86
        8761     1.007918     2.322031  0.000273931     17542.85
        8762      1.00739     2.322056 9.776106e-05     17547.92
        8763       1.0069     2.322239 4.505292e-05     17551.32
        8764     1.006671     2.322067 0.0001062689     17554.17
        8765     1.006366     2.322211 7.787415e-05     17557.29
        8766     1.005923     2.322481 0.0001395563     17560.77
        8767     1.005212      2.32255 0.0002021865     17562.65
        8768     1.004641     2.322625 0.0001608031      17565.3
        8769      1.00437      2.32302 4.428806e-05     17569.44
        8770     1.003883     2.323125   -2.984e-05     17571.77
        8771     1.002638     2.322727 -0.0001483709     17574.15
        8772     1.001433     2.322506 -0.0002215079     17577.69
        8773     1.000429     2.322427 -0.0002763757     17580.97
        8774    0.9994649     2.322239 -0.0004769801     17584.51
        8775    0.9986181     2.321622 -0.0006651779     17587.99
        8776     0.997842     2.320598 -0.0007444035     17590.78
        8777    0.9971843     2.319766 -0.0008716852      17591.9
        8778     0.997084     2.319261 -0.0009332052     17593.43
        8779    0.9968238     2.318135 -0.001077606     17594.49
        8780    0.9963578     2.316865 -0.001399682     17596.81
        8781    0.9963955     2.315456 -0.001470893     17601.82
        8782    0.9970467     2.313662 -0.001663684     17606.04
        8783    0.9972109     2.312252 -0.001812303     17609.22
        8784    0.9968512     2.310211  -0.00188788      17610.6
        8785    0.9964676     2.308206 -0.002166092     17612.08
        8786    0.9957558     2.306111 -0.002213156     17614.16
        8787    0.9948981     2.303587 -0.002367211     17616.57
        8788    0.9944937     2.301358 -0.002578141     17617.34
        8789    0.9946913     2.298737 -0.002639434     17618.37
        8790    0.9953317     2.295798 -0.002663493      17622.1
        8791    0.9960683      2.29303 -0.002783877     17627.15
        8792    0.9963694     2.290704 -0.002593166     17631.76
        8793    0.9968532     2.287602 -0.002382356     17635.41
        8794    0.9971921     2.285425 -0.002420927     17638.04
        8795    0.9973852       2.2835 -0.002111551     17639.97
        8796    0.9974388      2.28102 -0.002022147     17642.74
        8797    0.9974948     2.279156 -0.001978063     17645.17
        8798    0.9975245     2.277337 -0.001878289     17646.57
        8799    0.9970578     2.275588 -0.001680151     17647.44
        8800    0.9963532     2.273507 -0.001510199     17649.07
        8801    0.9959581     2.272435 -0.001383867     17651.99
        8802    0.9956749     2.271296 -0.001143406     17655.22
        8803    0.9955604     2.270052  -0.00106562     17657.95
        8804    0.9957139     2.268934 -0.0009354518     17662.72
        8805    0.9954796     2.268173 -0.0008376805     17666.27
        8806    0.9950862     2.267554 -0.0006350284     17668.77
        8807    0.9947978     2.266702 -0.0006112444     17671.53
        8808    0.9944538     2.266393 -0.0005986027      17674.6
        8809    0.9945687     2.265728 -0.0004957417     17677.89
        8810    0.9949253      2.26516 -0.0005628065     17679.89
        8811    0.9949911     2.264719 -0.0004678103     17683.28
        8812    0.9945553     2.264142 -0.0005418349     17685.44
        8813    0.9942651     2.263856 -0.0006058736     17686.69
        8814    0.9940143     2.262993 -0.0005938825     17689.54
        8815    0.9940078     2.262295 -0.0007159502     17693.67
        8816    0.9941651     2.261767 -0.0007245109     17697.01
        8817    0.9946667     2.260993 -0.0008092488     17700.44
        8818    0.9953431     2.260095 -0.0009019084      17703.1
        8819    0.9958436     2.259058 -0.0008963763     17705.78
        8820    0.9958684     2.258159 -0.0009783728     17707.71
        8821    0.9956207     2.257407 -0.001103032     17708.02
        8822    0.9956883     2.256181 -0.001207968     17709.05
        8823    0.9956383     2.254646 -0.001380295     17708.45
        8824    0.9954587     2.253327 -0.001462074      17707.5
        8825    0.9952891     2.251886 -0.001563666     17707.36
        8826    0.9948444     2.250333 -0.001709025     17704.96
        8827    0.9938587     2.248391 -0.001713864     17699.66
        8828     0.993356     2.246491 -0.001784026     17690.93
        8829    0.9934938     2.245031 -0.001897437     17673.27
        8830    0.9944068     2.243197 -0.001803683     17629.57
        8831     0.996532     2.240802 -0.001530341     17493.14
        8832    0.9976366     2.239276 -0.001657309     17239.91
        8833    0.9935328     2.238909  -0.00130778     17207.07
        8834    0.9954944     2.236567 -0.001199748     17337.38
        8835    0.9956813     2.235571 -0.001648601     17249.38
        8836    0.9927408     2.234477 -0.001396522     17455.15
        8837    0.9948209     2.232315 -0.001488366     17698.19
        8838    0.9957017     2.230981 -0.001463238     17758.47
        8839    0.9960836     2.229617 -0.001150913      17773.2
        8840    0.9961214     2.228624 -0.001082213     17778.89
        8841    0.9963036     2.227711 -0.001018193     17782.02
        8842    0.9965741     2.226652 -0.001049895     17784.71
        8843     0.996727     2.225544 -0.001059189     17788.34
        8844    0.9967709     2.224425  -0.00108271     17791.86
        8845    0.9969995     2.223474 -0.001050278     17793.72
        8846    0.9973052     2.222322 -0.001064529      17795.4
        8847    0.9976446     2.221343 -0.001101017     17797.52
        8848    0.9980621     2.220167 -0.001060784     17800.77
        8849    0.9985356      2.21907 -0.001099065     17804.89
        8850    0.9990574     2.218078 -0.001046145     17809.32
        8851    0.9992711     2.216947  -0.00101375     17811.74
        8852    0.9996323     2.215982 -0.001002913      17813.4
        8853     1.000084     2.215015 -0.0009531657     17815.07
        8854     1.000352     2.214067 -0.0009391472     17817.39
        8855      1.00038     2.213134 -0.0008614993     17820.04
        8856     1.000792     2.212225 -0.0007548995     17822.74
        8857     1.000725     2.211569 -0.0006985225     17825.38
        8858     1.000397     2.211047 -0.0006020118     17826.48
        8859     1.000465      2.21034 -0.0005456605     17829.39
        8860     1.000749     2.209817 -0.0004756685     17833.92
        8861     1.000869     2.209387 -0.000403772     17839.07
        8862     1.000966     2.209145 -0.0002959681     17845.35
        8863     1.001325     2.208725 -0.0002266602      17849.4
        8864     1.001347     2.208634 -0.0002716168     17851.58
        8865     1.000504      2.20848 -0.0002377169     17852.79
        8866    0.9994266     2.208058 -0.0001807554        17854
        8867    0.9987765     2.207774 -0.0001480821     17856.39
        8868    0.9982219     2.207911 -4.554461e-05      17858.3
        8869    0.9979148     2.207888 0.0001013708     17860.15
        8870     0.997898     2.207876 4.634429e-06     17863.54
        8871    0.9981019      2.20818 1.768855e-05     17867.85
        8872     0.997953     2.207929 8.758294e-05     17870.88
        8873    0.9978931     2.207958 7.834762e-05     17874.81
        8874    0.9980435     2.208226 0.0001663061     17878.24
        8875    0.9981426     2.208493 0.0001540115      17881.2
        8876      0.99774     2.208594 8.022877e-05     17884.07
        8877    0.9973376     2.208574 0.0001750868      17885.4
        8878    0.9973005     2.208547 0.0001559839     17887.01
        8879     0.997123     2.209193 0.0002052022     17888.61
        8880    0.9973837     2.209218 0.0002769375     17892.64
        8881    0.9976162     2.209395 0.0002661048     17896.43
        8882    0.9977416     2.209655  0.000321533     17898.53
        8883       0.9977     2.210258 0.0003905913     17899.94
        8884    0.9975236     2.210504 0.0003157971     17901.91
        8885    0.9972399     2.210958 0.0001794434     17904.37
        8886    0.9968687     2.210918  0.000182867     17907.63
        8887     0.996677     2.210976 0.0002129203     17911.53
        8888    0.9965068     2.211236 0.0002227803     17915.43
        8889     0.996567     2.211809 0.0001834586     17918.86
        8890      0.99673     2.211809 0.0001000056      17921.7
        8891    0.9968038     2.211709 -0.0001622751     17924.87
        8892    0.9967317     2.211636 -0.0002415638     17926.85
        8893     0.996346      2.21116 -0.0003368586     17927.73
        8894     0.996195     2.210843 -0.000378278     17930.65
        8895    0.9961383     2.210362 -0.0004113722     17934.76
        8896    0.9959534     2.210123 -0.0005810714     17937.32
        8897    0.9955595     2.209515 -0.0007601572     17939.46
        8898    0.9950009     2.208519 -0.001020782     17942.38
        8899    0.9948162     2.207321 -0.001189247     17945.69
        8900    0.9948463      2.20604 -0.001295828     17948.37
        8901     0.994891     2.204758 -0.001330233     17950.97
        8902      0.99511     2.203335 -0.001402377     17954.11
        8903    0.9949764        2.202 -0.001446602     17956.07
        8904    0.9948781      2.20043 -0.001601689     17959.73
        8905    0.9948237     2.198971 -0.001623003      17961.5
        8906    0.9949211     2.196929  -0.00166881     17962.97
        8907     0.994631     2.195508 -0.001821185     17965.51
        8908    0.9946018     2.193755 -0.001775848     17969.27
        8909    0.9946843     2.191687 -0.001843747     17971.69
        8910    0.9946725     2.189825 -0.001775003     17974.29
        8911     0.994462     2.188133 -0.001693256     17978.43
        8912    0.9945335     2.186655 -0.001651035     17982.58
        8913    0.9949523     2.184914 -0.001589539     17985.45
        8914    0.9952901     2.183221 -0.001653058     17986.84
        8915    0.9955212     2.181775 -0.001546894     17988.83
        8916    0.9958371     2.180043 -0.001424334     17991.92
        8917    0.9958939     2.178726 -0.001396341     17993.06
        8918    0.9959797     2.177524 -0.001195225     17995.48
        8919    0.9959173      2.17619 -0.001272223      17999.5
        8920    0.9959367     2.175262 -0.001258486     18002.77
        8921    0.9958033     2.173637  -0.00119689      18004.9
        8922    0.9955953      2.17249  -0.00119838     18007.47
        8923    0.9954683     2.171402 -0.001113092     18010.22
        8924    0.9955523     2.170468 -0.001049467     18013.55
        8925     0.995884     2.169185 -0.001000064     18016.54
        8926    0.9961725     2.168292 -0.001013322     18019.72
        8927    0.9964105     2.167402 -0.0009108971     18022.07
        8928    0.9969076     2.166415 -0.0008844676     18023.04
        8929    0.9971905     2.165541 -0.0009226274        18024
        8930    0.9973348     2.164754 -0.0008729811        18027
        8931    0.9977935     2.163712 -0.0009184189     18030.21
        8932    0.9983857     2.162923 -0.0009935974     18033.92
        8933    0.9987043     2.161867 -0.0009195708     18036.63
        8934    0.9988535      2.16078 -0.0009155114     18038.45
        8935    0.9988307     2.160033 -0.0008383376     18040.86
        8936    0.9989499     2.159261 -0.0007490911     18038.14
        8937    0.9994041     2.158514 -0.0007160478      18014.8
        8938    0.9995804     2.157783 -0.0007155877     17964.26
        8939    0.9989557     2.157169 -0.0007318497     17943.01
        8940    0.9984619     2.156399 -0.0006954774     17965.68
        8941    0.9981266     2.155587 -0.0007282701     18017.14
        8942    0.9982912     2.155001 -0.0007892897     18043.02
        8943    0.9983758     2.154256 -0.0007718848     18050.99
        8944     0.998515     2.153241 -0.0008656686     18056.75
        8945    0.9988737     2.152499 -0.0008849734     18062.52
        8946    0.9994094     2.151539 -0.0009142713     18067.44
        8947     0.999881     2.150716 -0.0008756496     18071.31
        8948     1.000376     2.149584 -0.0008269735     18074.31
        8949     1.000523     2.148997 -0.0008593711     18076.62
        8950     1.000279     2.148231 -0.0008120522     18077.64
        8951     1.000152     2.147279 -0.0008692368     18079.33
        8952     1.000364     2.146336 -0.0008786724     18081.91
        8953     1.000793      2.14552 -0.000900722     18085.08
        8954      1.00122     2.144716 -0.0009197147     18088.99
        8955     1.001299     2.143676 -0.0008969236     18092.34
        8956     1.001112     2.142657 -0.0009376041     18092.78
        8957     1.000979     2.141932 -0.0009693674     18094.07
        8958     1.001009     2.140966 -0.0009045072     18096.13
        8959     1.001202     2.139798 -0.0009033314     18098.08
        8960     1.001554     2.139039 -0.0009144886     18100.02
        8961     1.002109     2.138319 -0.0008545234     18103.38
        8962     1.002349     2.137308 -0.0008673903     18106.03
        8963     1.002291      2.13638 -0.0009017035     18107.83
        8964     1.002193      2.13557 -0.000960472     18110.95
        8965     1.001953     2.134712 -0.0009532204      18115.4
        8966     1.001926     2.133466 -0.001053033     18118.65
        8967     1.002133     2.132567 -0.001093481     18121.36
        8968     1.002322     2.131358 -0.001057966     18122.72
        8969     1.002251     2.130338 -0.001087485     18124.06
        8970     1.002273     2.129234 -0.0009336462     18125.66
        8971     1.002142     2.128217 -0.0009858585     18128.92
        8972     1.002101     2.127623 -0.000883678     18134.42
        8973     1.001993     2.126394 -0.0007850082     18137.53
        8974     1.001805     2.125699 -0.0009418748     18139.67
        8975      1.00178     2.125077 -0.0008052477        18141
        8976     1.001875     2.123855 -0.0008422799     18142.43
        8977     1.002015     2.123173 -0.0008816952     18144.62
        8978     1.002181      2.12233 -0.0007590165     18145.78
        8979      1.00244     2.121551 -0.0007897998      18147.9
        8980     1.002754     2.120819 -0.0007764931     18149.64
        8981     1.002938     2.120014 -0.0007668716      18151.6
        8982     1.003053     2.119224 -0.0008046678     18152.23
        8983     1.002992     2.118483 -0.0007157105     18153.53
        8984     1.002644     2.117601 -0.0006825605      18155.4
        8985     1.002216     2.117151 -0.0006792912     18157.16
        8986     1.001897     2.116494 -0.000558897     18159.83
        8987     1.001445     2.115766 -0.0006346226     18162.56
        8988     1.000994     2.115365 -0.0006875151     18164.38
        8989     1.000979     2.114613 -0.0006165217     18166.59
        8990     1.001129     2.113744 -0.0006038858     18168.66
        8991     1.001184       2.1133 -0.0005132449     18169.57
        8992     1.001293      2.11295 -0.0004461466     18170.73
        8993     1.001378      2.11256 -0.0004507649      18172.9
        8994     1.001687     2.111959 -0.0004964257     18174.96
        8995     1.001995     2.111497 -0.0004873761     18176.75
        8996     1.002084     2.110964 -0.0005155824     18179.96
        8997     1.001848      2.11061 -0.0005519429     18182.31
        8998     1.001526     2.109897 -0.0005764817     18184.41
        8999     1.000932     2.109289 -0.0005877849      18185.9
        9000     1.000471     2.108658 -0.0005860518      18188.2
        9001      1.00022     2.108259 -0.0005710345     18190.96
        9002     1.000148     2.107553 -0.0005135534     18193.94
        9003     1.000066     2.107005 -0.0005492572     18196.23
        9004     1.000103     2.106604 -0.000499678     18199.44
        9005     1.000064     2.106062 -0.000452921     18202.71
        9006     1.000065     2.105554 -0.0004337306     18204.83
        9007     1.000161     2.105193 -0.0004564679     18207.06
        9008     1.000312     2.104869 -0.0004348744     18210.57
        9009      1.00019     2.104236 -0.0004244687     18212.36
        9010    0.9998868     2.103815 -0.0004631975     18213.65
        9011    0.9997973     2.103495 -0.0004594306     18214.95
        9012    0.9999489     2.103016 -0.0004132469     18216.52
        9013     1.000322     2.102399 -0.0004532758     18218.22
        9014      1.00065     2.102162 -0.0004295276     18220.46
        9015     1.001123     2.101682 -0.0004033309     18223.69
        9016     1.001284     2.101298 -0.0004472988     18226.59
        9017     1.000701     2.100785 -0.0004103576     18228.41
        9018    0.9997339     2.100372 -0.0005004947     18230.56
        9019    0.9989335     2.100041 -0.0004668974     18233.57
        9020    0.9984649     2.099296 -0.0004969911     18237.34
        9021    0.9980606     2.098918 -0.0005662523     18240.18
        9022    0.9978583     2.098384 -0.0005195376     18242.12
        9023    0.9978444     2.097776 -0.0005806343     18244.79
        9024    0.9977057     2.097218 -0.0005669301     18247.33
        9025    0.9975683     2.096595 -0.0006100958     18248.82
        9026    0.9972812     2.096117 -0.0006342515     18251.22
        9027     0.997154     2.095335 -0.0007318906     18253.84
        9028    0.9972351     2.094681 -0.0007080533     18257.51
        9029    0.9975998     2.093668 -0.0006589761     18260.49
        9030     0.998092     2.093284 -0.0007330162     18263.78
        9031     0.998534     2.092699 -0.0007215632     18265.06
        9032    0.9991651     2.091749 -0.0007646577     18266.82
        9033    0.9995913     2.090781 -0.0007990746     18267.99
        9034    0.9995849     2.090226 -0.000658432     18269.24
        9035    0.9993653     2.089503 -0.0006584736     18272.35
        9036    0.9991477     2.089115 -0.000712825     18275.99
        9037    0.9989613     2.088148 -0.0007421359     18278.38
        9038    0.9985534     2.087375 -0.0008337245     18279.67
        9039    0.9983835     2.086535  -0.00075424     18280.81
        9040    0.9984517      2.08578 -0.0007483183     18282.29
        9041    0.9984928     2.085131 -0.0007802373     18283.44
        9042    0.9986176     2.084381 -0.000775565     18285.44
        9043    0.9988352     2.083414 -0.0008172413     18287.44
        9044    0.9986183     2.082678 -0.0009110712     18290.22
        9045    0.9981611     2.081862 -0.0008849586      18293.1
        9046     0.997865     2.080737 -0.0009205748     18296.33
        9047    0.9977264     2.079874 -0.0009111728     18298.99
        9048    0.9978706     2.078996 -0.0007715464     18302.33
        9049    0.9978899     2.078217 -0.0007823709     18302.67
        9050    0.9979478     2.077651 -0.0007728387     18302.62
        9051    0.9981897     2.076744 -0.000848639     18303.76
        9052    0.9986946     2.075904 -0.0009300012     18307.58
        9053    0.9992878     2.074822 -0.0008866423      18311.2
        9054    0.9997497     2.073931 -0.0008886212     18314.16
        9055    0.9999789     2.073198 -0.0008320642     18315.73
        9056     1.000035      2.07235 -0.0008809749     18316.77
        9057     1.000096     2.071494 -0.0008946522     18317.95
        9058    0.9999885     2.070407 -0.000935594     18318.66
        9059    0.9997374     2.069619 -0.000992035     18320.03
        9060    0.9995804     2.068607 -0.0009219175     18321.74
        9061    0.9998097     2.067526  -0.00088661     18322.92
        9062     1.000029     2.066719 -0.000888654     18322.82
        9063     1.000425     2.066073 -0.0007967474      18324.7
        9064     1.000526     2.065053 -0.0008482767     18326.45
        9065     1.000255     2.064339 -0.0008906924     18328.36
        9066    0.9998844     2.063326 -0.0008737241     18330.65
        9067     0.999547      2.06251 -0.0009111626     18333.01
        9068    0.9993329     2.061558 -0.000789089     18335.09
        9069    0.9993501     2.060694 -0.0007416623     18337.74
        9070    0.9994668      2.06017 -0.0007214837     18341.04
        9071    0.9995933     2.059543 -0.0006706157     18343.88
        9072    0.9996291     2.058672 -0.0007494008     18345.57
        9073    0.9996617     2.058012 -0.0007919267     18347.78
        9074    0.9999485     2.057172 -0.0007946718      18350.6
        9075     1.000014     2.056376 -0.0008292683     18351.91
        9076     1.000268     2.055493 -0.0007303243     18353.98
        9077     1.000589     2.054695 -0.0007867162     18355.98
        9078     1.000596     2.054251 -0.0007955675      18357.4
        9079     1.000617     2.053229 -0.0007877562     18358.62
        9080     1.000822     2.052311 -0.0008845992     18360.54
        9081     1.000916     2.051544 -0.0008301626     18361.07
        9082     1.000798     2.050712 -0.0008208159     18360.37
        9083     1.000799     2.049908 -0.0007743731     18360.25
        9084     1.001171     2.049028 -0.0008227731     18357.17
        9085     1.001421     2.048446 -0.0008110535      18343.8
        9086     1.001373     2.047421 -0.0008227221     18318.96
        9087      1.00123     2.046664 -0.0009087972      18300.7
        9088     1.001164     2.045737 -0.0008512635     18292.58
        9089     1.001324     2.044811 -0.000799584     18284.71
        9090      1.00188     2.044016 -0.0007853296     18261.03
        9091     1.002116     2.043466 -0.0007343401     18211.55
        9092     1.002435     2.042595 -0.0006125883     18164.63
        9093     1.003181     2.041874 -0.0007207357     18080.18
        9094      1.00153     2.041566 -0.0008157908     18057.12
        9095     1.001534     2.040583 -0.0007869302     18207.37
        9096     1.003748     2.039332 -0.0007827053     18237.37
        9097     1.004755     2.038726 -0.0007469021     18122.04
        9098     1.003498     2.038435 -0.0006635577     18100.51
        9099     1.003383     2.037595 -0.0007322285     18204.32
        9100     1.003661     2.036678 -0.0007854267     18285.66
        9101     1.003643     2.035797 -0.0008192782     18307.21
        9102     1.003218     2.035293 -0.0007916204     18327.35
        9103     1.002828     2.034318 -0.0007785998     18348.36
        9104     1.002424     2.033512 -0.000833882     18358.88
        9105     1.002169     2.032683 -0.000817628     18367.44
        9106     1.001659     2.031958 -0.0007641346     18378.28
        9107     1.001109     2.031047 -0.0008186389     18394.34
        9108     1.000669     2.030455 -0.0008243857     18411.57
        9109     1.000301     2.029408 -0.0007285674     18421.24
        9110     1.000251      2.02866 -0.0007582806     18427.16
        9111     1.000272     2.028133 -0.000718542     18432.21
        9112      1.00022     2.027422 -0.0007482716     18434.85
        9113     1.000066     2.026534 -0.000816334     18436.84
        9114      1.00004     2.025667 -0.0008488894     18440.32
        9115     1.000195     2.024868 -0.0008356574     18444.32
        9116      1.00021     2.024026 -0.0007810489     18447.76
        9117     1.000327     2.023191 -0.0007572489     18451.52
        9118     1.000467     2.022543 -0.0007465296      18454.5
        9119     1.000626     2.021839 -0.0007465074     18456.47
        9120      1.00071      2.02104 -0.0008255293     18457.41
        9121     1.000708     2.020205 -0.0008072586     18457.42
        9122     1.000727     2.019241 -0.0007727075     18458.31
        9123     1.000846      2.01861 -0.0007390354     18459.78
        9124     1.000808     2.017949 -0.0006560788     18460.97
        9125      1.00077     2.017249 -0.0006346798        18465
        9126     1.000533     2.016617 -0.0006592473     18468.35
        9127      1.00024     2.016071 -0.0006760464     18470.74
        9128     1.000117     2.015312 -0.0007086824      18473.1
        9129     1.000251     2.014545 -0.000774487     18475.78
        9130     1.000416     2.013782 -0.0006897608     18477.65
        9131     1.000721     2.012973 -0.0006646103     18478.92
        9132     1.000985     2.012553 -0.0006199237      18480.1
        9133     1.001437     2.011887 -0.0005884092     18481.51
        9134     1.001861     2.011302 -0.0006248389     18484.11
        9135     1.001981     2.010619 -0.0006285985     18486.16
        9136     1.001825     2.010054 -0.0005151193     18487.86
        9137     1.001852     2.009372 -0.0004767535     18488.25
        9138     1.001823     2.009242 -0.0005158944     18488.98
        9139     1.002123     2.008712 -0.0004784907     18489.28
        9140     1.002764      2.00799 -0.0005806389     18490.23
        9141     1.003122     2.007458 -0.0005440933      18492.7
        9142     1.002756     2.006919 -0.0005440394     18496.04
        9143     1.002323     2.006536 -0.0005473456      18498.8
        9144      1.00225     2.005814 -0.0005738004     18501.66
        9145     1.002086     2.005269 -0.0005948928      18504.8
        9146     1.001666     2.004624 -0.0005552908     18506.65
        9147     1.001384     2.004157 -0.0004921888     18508.08
        9148     1.001425     2.003593 -0.0004565074     18509.35
        9149     1.001506       2.0033 -0.0005120059     18510.44
        9150     1.001639     2.002798 -0.0004592675     18511.79
        9151     1.001362     2.002108 -0.0005357374     18512.23
        9152     1.000958     2.001756 -0.0005354251     18512.33
        9153     1.000745     2.001157 -0.0004450047     18514.04
        9154     1.000482     2.000656 -0.0005133839     18515.38
        9155     1.000362     2.000328 -0.0005362117     18517.55
        9156     1.000174     1.999703 -0.0004907403     18518.59
        9157     1.000166     1.999012 -0.0005981693     18519.53
        9158      1.00031     1.998693 -0.0006012271     18522.17
        9159     1.000612     1.997936 -0.0005884614     18524.31
        9160     1.001058     1.997298 -0.0006973578     18527.88
        9161     1.001357     1.996658 -0.0006429633     18529.98
        9162     1.001656     1.995904 -0.0006646195     18532.15
        9163     1.001931     1.995364 -0.0006853758     18534.35
        9164     1.002227     1.994639 -0.0006077969      18537.3
        9165     1.002421     1.993917 -0.0006216596     18540.63
        9166     1.002689     1.993473 -0.0006026991     18541.76
        9167     1.003075     1.992877 -0.0007178525     18542.61
        9168     1.003301     1.992228 -0.0007852957      18545.2
        9169     1.003397     1.991045 -0.0007300034      18548.3
        9170      1.00333     1.990331 -0.0007717797     18551.48
        9171     1.003192     1.989957 -0.0005755452     18554.58
        9172     1.002815     1.989141 -0.0006120276     18554.54
        9173     1.002446     1.988743 -0.000689385     18554.54
        9174     1.002286     1.987883 -0.0006746571     18555.66
        9175     1.002197       1.9872 -0.0007398143     18556.86
        9176     1.002067     1.986443 -0.0006369057     18556.87
        9177     1.002044     1.985784 -0.0006114528     18557.77
        9178     1.001769     1.985336 -0.0006347273      18557.6
        9179      1.00159     1.984754 -0.0006732485     18557.56
        9180     1.001692     1.983904 -0.000714179     18559.16
        9181     1.001826     1.983091 -0.0007336466     18560.77
        9182     1.001428     1.982479 -0.0006647658     18561.36
        9183     1.001044     1.981819 -0.0006879685     18562.32
        9184     1.000817     1.981245 -0.0006725192     18563.64
        9185     1.000851     1.980339 -0.0006569812     18565.24
        9186     1.000959     1.979789 -0.0006795723     18566.88
        9187     1.000874     1.979191 -0.0006289694     18568.15
        9188     1.000896     1.978526 -0.0006571992     18569.74
        9189     1.000852     1.977823 -0.0006152161     18570.92
        9190     1.000724      1.97716 -0.0005773624     18571.02
        9191     1.000633     1.976731 -0.0005679426     18572.52
        9192     1.000596     1.976217 -0.0006060954     18575.41
        9193     1.000614     1.975552 -0.0007141735     18577.95
        9194     1.000631     1.974736 -0.0007075514      18579.4
        9195     1.000743     1.973874 -0.0006864432     18579.74
        9196     1.000937     1.973387 -0.0005897983     18580.55
        9197      1.00096     1.972806 -0.0005416216      18580.9
        9198     1.000866     1.972377 -0.0006079712      18581.9
        9199     1.000657     1.971707 -0.0005790648     18582.04
        9200     1.000927     1.970955 -0.0006442489     18585.69
        9201       1.0012     1.970489 -0.0006277501     18587.76
        9202     1.001401       1.9698 -0.0006378073     18588.27
        9203     1.001385     1.969196 -0.0007127101      18588.5
        9204     1.001411     1.968404 -0.0006982721     18590.64
        9205     1.001542     1.967639 -0.0007348109     18592.24
        9206     1.001853     1.967007 -0.000681119     18593.92
        9207     1.002051     1.966257 -0.0006222015     18594.14
        9208     1.002393     1.965679 -0.000644778     18594.68
        9209      1.00288      1.96515  -0.00063196     18598.04
        9210     1.003153     1.964427 -0.0006607223     18601.37
        9211     1.003253     1.963729 -0.0007245375     18603.37
        9212     1.003349     1.963036 -0.0007677627     18605.68
        9213     1.003587     1.962252 -0.0007262662     18607.08
        9214      1.00385     1.961356 -0.000719012     18608.17
        9215     1.003814     1.960824 -0.0007188884     18609.75
        9216       1.0037      1.96016 -0.0006198377     18611.45
        9217     1.003622     1.959376 -0.0006628949     18613.32
        9218     1.003566     1.958877 -0.0007221041     18614.79
        9219     1.003474     1.958173 -0.0007223191     18615.25
        9220     1.003315     1.957272 -0.000737205     18615.55
        9221     1.003224     1.956487 -0.0007978815     18617.24
        9222     1.003262     1.955928 -0.0007478585     18618.82
        9223     1.002975     1.954981 -0.000756035     18620.51
        9224      1.00243      1.95428 -0.0007984035     18621.68
        9225      1.00211     1.953463 -0.0007361957     18623.44
        9226     1.001932     1.952735 -0.0007003969     18625.32
        9227     1.001936     1.952036 -0.0006813372        18628
        9228     1.001869     1.951479 -0.0006943753     18630.52
        9229     1.001566     1.950737 -0.0007203825     18631.43
        9230     1.001311     1.949957 -0.0007444615     18632.36
        9231     1.001371     1.949155 -0.0007199029     18632.95
        9232      1.00141     1.948501 -0.0007477949     18632.63
        9233     1.001503     1.947858 -0.0007062057     18632.54
        9234     1.001617     1.946966 -0.0007002894     18632.72
        9235     1.001235      1.94633 -0.0007297333     18632.49
        9236     1.001277       1.9457 -0.0006966751     18633.85
        9237     1.001607     1.944939 -0.0007081293     18636.31
        9238     1.001708     1.944179 -0.0007714458     18636.88
        9239     1.001555     1.943497 -0.0007431187     18638.07
        9240     1.001439     1.942614 -0.0006591035     18640.06
        9241     1.001215     1.941966 -0.0006711035     18641.89
        9242     1.000871     1.941543 -0.0006366368     18642.76
        9243     1.000535     1.940813 -0.0006854682     18642.52
        9244     1.000414     1.940067 -0.000776935     18642.19
        9245      1.00051     1.939224 -0.000687991     18640.84
        9246     1.000667     1.938435 -0.000684677     18639.13
        9247     1.000898     1.938061 -0.0006205398     18635.27
        9248     1.001106     1.937329 -0.0007239793     18625.86
        9249     1.001959     1.936742 -0.0006494985     18587.15
        9250     1.002699     1.935539 -0.0006110823     18479.12
        9251     1.001247     1.935463 -0.0007084869     18405.33
        9252     1.000491     1.934884 -0.0006645774     18511.74
        9253     1.001233     1.933908 -0.0006789067     18580.47
        9254     1.002261     1.932881 -0.0006384786     18517.73
        9255     1.001746     1.932747 -0.0006063845     18426.06
        9256     1.001427      1.93233 -0.0006087485     18510.37
        9257       1.0016     1.931483 -0.000745955      18612.7
        9258     1.001669     1.930446 -0.0007864879     18661.23
        9259     1.001296     1.929764 -0.0007208972     18671.65
        9260     1.000766     1.929184 -0.0006126514     18675.06
        9261     1.000513     1.928599 -0.0006082048      18678.2
        9262     1.000435     1.927995 -0.0007072918     18680.67
        9263     1.000404     1.927331 -0.0007214059     18682.08
        9264     1.000382     1.926355 -0.0007585748     18683.62
        9265     1.000326     1.925714 -0.0008093662     18685.25
        9266     1.000122     1.924961 -0.0006685348     18684.94
        9267    0.9999673     1.924093 -0.0006416676     18684.72
        9268    0.9995004     1.923681 -0.0006271159     18684.89
        9269    0.9992684     1.923147 -0.0005674069     18686.66
        9270    0.9992113     1.922452 -0.0006163122     18688.22
        9271    0.9991883     1.921824 -0.0006332033     18688.95
        9272    0.9992036     1.921216 -0.0006239739     18691.25
        9273    0.9992951     1.920614 -0.0006519375      18693.4
        9274    0.9994806     1.919957 -0.000658152     18695.63
        9275    0.9997244     1.919216 -0.0006384603     18694.83
        9276    0.9999142     1.918583 -0.0006239412     18694.67
        9277    0.9999168      1.91806 -0.0005693461     18695.97
        9278     1.000088     1.917461 -0.0005936737      18698.8
        9279     1.000303     1.916939 -0.0006175805     18700.26
        9280      1.00062     1.916209 -0.0006684336     18701.04
        9281     1.000832      1.91559 -0.0007145257      18702.8
        9282     1.000983     1.914787 -0.0006642833     18704.25
        9283     1.001122      1.91408 -0.0006767026      18703.8
        9284     1.001027     1.913552 -0.0006430414     18704.43
        9285     1.000807     1.912883 -0.0006097546     18706.74
        9286     1.000531     1.912215 -0.0006371159     18708.84
        9287      1.00021     1.911641 -0.0006003666     18709.67
        9288    0.9998745     1.911003 -0.0006028972      18711.5
        9289    0.9994819     1.910482 -0.0006333579     18712.14
        9290    0.9993956     1.909803 -0.0005465694     18712.63
        9291     0.999215     1.909108 -0.0005590512     18712.72
        9292    0.9991576     1.908817 -0.0005491733     18714.62
        9293    0.9990911     1.908246 -0.0004948886     18714.99
        9294    0.9993599     1.907607 -0.0005783042      18716.4
        9295    0.9996009     1.907128 -0.0005282792     18717.69
        9296    0.9997325     1.906504 -0.0005482843     18718.51
        9297     0.999571     1.906132 -0.0005895926     18719.21
        9298    0.9994296     1.905413 -0.0006044989     18721.35
        9299    0.9993656      1.90477 -0.0006052465     18723.01
        9300    0.9996527     1.904086 -0.0006353091     18725.51
        9301    0.9998254     1.903711 -0.0005426284      18726.4
        9302    0.9997046     1.902872 -0.0005053452     18726.91
        9303    0.9995832       1.9026 -0.000561033     18727.66
        9304     0.999678     1.902064 -0.0005053231     18727.06
        9305    0.9997504     1.901467 -0.0006000438     18726.23
        9306    0.9998949     1.900851 -0.0005380217      18726.9
        9307     1.000209     1.900199 -0.0005976784     18728.91
        9308     1.000252     1.899912 -0.0005818499     18730.35
        9309     1.000269     1.899077 -0.0005496904     18730.89
        9310      1.00039     1.898524 -0.0006241653     18731.86
        9311     1.000501     1.898001 -0.0005699273     18731.28
        9312     1.000895     1.897415 -0.0005552796     18732.37
        9313     1.001172     1.896797 -0.0005775974     18732.97
        9314     1.001223     1.896302 -0.0005635492     18734.23
        9315     1.001049      1.89569 -0.0005681272     18735.62
        9316     1.000861     1.895161 -0.0005938704     18736.35
        9317     1.000786     1.894524 -0.0005593013     18738.82
        9318     1.000695     1.893927 -0.0005580089     18741.42
        9319     1.000787     1.893453 -0.0005532462     18743.55
        9320     1.000971     1.892929 -0.0005484319     18743.17
        9321     1.001162     1.892311 -0.0005962713     18741.19
        9322     1.001203     1.891733  -0.00063336      18740.6
        9323     1.001195     1.891068 -0.0006123951     18741.45
        9324     1.000996     1.890396 -0.000619963     18741.96
        9325      1.00111     1.889862 -0.0006058765     18743.71
        9326      1.00135     1.889253 -0.0006240194     18745.67
        9327      1.00179     1.888644 -0.0006394511     18747.65
        9328     1.002202       1.8879 -0.0006293632     18748.42
        9329     1.002719     1.887304 -0.0006417733     18750.02
        9330     1.003217     1.886736 -0.0005479845     18751.82
        9331     1.003958     1.886077 -0.0005536375     18752.95
        9332     1.004403     1.885708 -0.0005929849     18751.59
        9333     1.004604     1.885089 -0.000573644     18751.16
        9334     1.004568     1.884364 -0.0005872042     18751.69
        9335      1.00407     1.883783 -0.0005775485     18754.87
        9336     1.003277     1.883359 -0.000538749     18757.09
        9337     1.002646     1.882779 -0.0005833689      18759.4
        9338     1.002212     1.882209 -0.0006594659     18761.09
        9339     1.002006     1.881449 -0.000643694     18760.29
        9340     1.002037     1.880721 -0.0006127226     18760.03
        9341     1.002113     1.880204 -0.0006000493     18759.87
        9342     1.002251     1.879758 -0.0005934604     18759.52
        9343     1.002525     1.879049 -0.0006386435     18760.61
        9344     1.002933     1.878347 -0.0006515098     18762.02
        9345     1.003046      1.87765 -0.0006021217     18762.27
        9346     1.002965     1.877152 -0.0005653928     18762.47
        9347     1.002643     1.876641 -0.0005377524     18764.93
        9348     1.002246     1.876086 -0.000608485     18766.05
        9349     1.001978     1.875499 -0.0006442684     18764.32
        9350     1.001828     1.874718 -0.0006520567     18760.05
        9351     1.001762     1.874064 -0.0006663904     18757.06
        9352     1.001668     1.873477 -0.0006377392     18759.95
        9353     1.001549     1.872833 -0.0005797266     18762.68
        9354     1.001424     1.872167 -0.0005729523      18763.9
        9355     1.001389     1.871745 -0.0005970597     18765.68
        9356     1.001435     1.871186 -0.0006279814     18769.72
        9357     1.001543     1.870445 -0.0006531387     18774.33
        9358     1.001577     1.869655 -0.000635964     18775.73
        9359     1.001588     1.869132 -0.0006050248     18775.89
        9360     1.001625     1.868642 -0.0005822877     18774.33
        9361     1.001823     1.868025 -0.0006187705     18772.34
        9362     1.002046     1.867326 -0.0005489788     18769.52
        9363     1.002406     1.866657 -0.000534616     18769.58
        9364     1.002775     1.866446 -0.0006243526     18771.68
        9365      1.00296     1.865886 -0.0007516345     18771.76
        9366     1.002954     1.864829 -0.0006373935     18773.22
        9367     1.002612     1.863651 -0.0006435032     18776.52
        9368     1.002234     1.863896 -0.0005331897     18781.66
        9369     1.001831     1.863312 -0.0004098815     18783.48
        9370     1.001595     1.862696 -0.0006116824     18783.81
        9371     1.001283     1.862011 -0.0005887741     18785.69
        9372     1.001017      1.86145  -0.00059564     18787.38
        9373     1.000736     1.860957 -0.0006237286     18787.85
        9374     1.000649     1.860313 -0.0006475811     18786.78
        9375      1.00087     1.859516 -0.0006659286     18786.03
        9376     1.001093     1.858859 -0.0006424956      18786.5
        9377     1.001348     1.858294 -0.0005584478     18787.55
        9378     1.001556     1.857743 -0.0006071658     18788.69
        9379      1.00187     1.857282 -0.0006112919     18790.29
        9380     1.002043     1.856431 -0.0006048615     18791.56
        9381     1.002135     1.855849 -0.0006503526     18791.78
        9382     1.002074     1.855324 -0.0005422961     18791.61
        9383     1.002072     1.854681 -0.0005417425     18793.16
        9384     1.001986     1.854261 -0.000578817     18794.57
        9385     1.001813     1.853682 -0.0005891167     18796.45
        9386     1.001395     1.853009 -0.0006371564      18797.4
        9387     1.001168     1.852324 -0.000625485     18797.78
        9388     1.001014     1.851713 -0.0006349126     18798.16
        9389     1.001055      1.85118 -0.0005767197     18797.99
        9390     1.001232     1.850469 -0.0006262012     18797.68
        9391     1.001282     1.850018 -0.0006121609     18797.35
        9392     1.000937     1.849208 -0.0005821475     18795.26
        9393     1.000344     1.848731 -0.0006611727     18794.52
        9394     1.000052      1.84814 -0.0006466941     18794.41
        9395     1.000205     1.847373 -0.0006296149     18795.96
        9396     1.000257     1.846621 -0.0006432075     18797.73
        9397    0.9999501     1.846212 -0.0006469902     18797.95
        9398    0.9998094     1.845568 -0.000576291     18798.57
        9399    0.9996949     1.844785 -0.0005985707      18799.9
        9400    0.9997003     1.844316 -0.0005608269     18800.78
        9401     0.999662     1.843818 -0.0005457914     18799.73
        9402    0.9996329     1.843324 -0.0006133271     18799.77
        9403    0.9996478     1.842602 -0.0006244691     18801.43
        9404    0.9997007     1.841863 -0.0006826686     18803.58
        9405    0.9998142      1.84132 -0.0006645422     18804.53
        9406     1.000172     1.840594 -0.000624002     18806.75
        9407     1.000337     1.839944 -0.0005994551     18807.11
        9408     1.000205     1.839367 -0.0005644887     18806.51
        9409    0.9998214     1.838923 -0.0005833787     18805.56
        9410    0.9995656     1.838336 -0.0005487192     18807.09
        9411    0.9995364      1.83761 -0.0005959082     18807.66
        9412    0.9995475     1.837172 -0.0006273107     18808.56
        9413    0.9996243     1.836539 -0.0006093258     18809.86
        9414    0.9996016     1.835826 -0.0006624953     18811.29
        9415    0.9994995     1.835173 -0.0006605239     18811.62
        9416    0.9992672     1.834522 -0.0006037234      18812.4
        9417     0.998954     1.833897 -0.0006133766     18810.81
        9418     0.998972     1.833411 -0.0006006933     18809.58
        9419    0.9992375     1.832719 -0.0005799059     18809.36
        9420    0.9994304     1.832119 -0.0006092617     18809.07
        9421    0.9996109     1.831577 -0.000625635     18808.12
        9422    0.9998063     1.830974 -0.000601114     18807.29
        9423     1.000054     1.830217 -0.0006471823     18807.07
        9424    0.9999915     1.829715 -0.0006657588      18805.8
        9425     1.000112     1.828988 -0.0006081569     18806.69
        9426     1.000253     1.828311 -0.0006658456     18807.15
        9427     1.000175     1.827784 -0.0005466765     18808.01
        9428     0.999698     1.827051 -0.0005674319     18806.98
        9429    0.9994558     1.826802 -0.0006155347     18806.24
        9430    0.9990836     1.826042 -0.0005842597     18806.67
        9431    0.9986895     1.825322 -0.000656867     18807.15
        9432     0.998497     1.824714 -0.0006286571     18807.67
        9433    0.9986347     1.824174 -0.0005766106     18808.69
        9434    0.9989561     1.823527 -0.0005739924     18808.63
        9435     0.999267     1.823015 -0.000591659     18808.84
        9436    0.9991644     1.822418 -0.0006301728     18808.27
        9437    0.9989032     1.821808 -0.0007000222     18808.31
        9438    0.9990692     1.821006 -0.0006867977     18808.83
        9439    0.9990794     1.820215 -0.0006415894     18808.46
        9440    0.9988184     1.819671 -0.0006099647     18808.72
        9441    0.9986773     1.819241 -0.0005845851     18808.85
        9442    0.9985952     1.818567 -0.0006082213      18808.1
        9443     0.998494     1.817877  -0.00064505     18808.16
        9444    0.9983664     1.817238 -0.0005828366     18807.77
        9445    0.9982155     1.816661 -0.0005356949     18807.26
        9446    0.9981646     1.816235 -0.0005685227     18807.62
        9447    0.9981235     1.815734 -0.0005609681     18808.51
        9448    0.9981417     1.814964 -0.000580496     18809.29
        9449    0.9980614     1.814417 -0.0005696076     18809.29
        9450     0.998145     1.813913 -0.0005367551     18807.61
        9451    0.9981506     1.813456 -0.0005472181     18806.97
        9452    0.9980237     1.812817 -0.0005745506     18807.21
        9453    0.9980049     1.812228 -0.0006312296     18806.29
        9454    0.9983699     1.811615 -0.0005967929     18806.68
        9455    0.9986869     1.810931 -0.0006586864     18806.85
        9456    0.9990889      1.81043 -0.0006219563     18806.33
        9457    0.9995152     1.809594 -0.000616363     18804.56
        9458     1.000058     1.809127 -0.0006917059     18803.99
        9459     1.000209     1.808465 -0.0005361662     18803.34
        9460     1.000448     1.807663 -0.0005702965     18803.85
        9461     1.000636     1.807449 -0.0005667493     18805.58
        9462     1.000484     1.806846 -0.000516015     18806.44
        9463    0.9998763     1.806198 -0.0005666407     18807.33
        9464    0.9992187     1.805599 -0.0005443563     18808.68
        9465    0.9985623     1.805182 -0.0005396921     18808.82
        9466    0.9979361     1.804669 -0.0004760202     18810.23
        9467    0.9972783      1.80404 -0.0005297579     18810.61
        9468    0.9967918     1.803695 -0.0005681408     18810.99
        9469    0.9964901     1.803063 -0.0005315884     18810.54
        9470    0.9963801     1.802396 -0.0006022602     18810.48
        9471    0.9961074     1.801913 -0.0005714121     18810.32
        9472    0.9960145     1.801286 -0.0005215019     18808.51
        9473    0.9960322     1.800778 -0.0005574111     18807.45
        9474    0.9960543      1.80031 -0.0005386914     18806.58
        9475      0.99575     1.799684 -0.0005635027     18804.31
        9476    0.9957053     1.799131 -0.0006005686     18803.81
        9477    0.9956746     1.798524 -0.0005997001      18803.7
        9478    0.9958657     1.797908 -0.0005632204     18803.74
        9479    0.9962728     1.797285 -0.0005380128     18803.67
        9480    0.9965658     1.796878 -0.000549192     18803.46
        9481    0.9963253     1.796372 -0.0004801532     18803.62
        9482    0.9960543     1.795711 -0.0005389408     18802.27
        9483    0.9958607     1.795364  -0.00058127     18798.43
        9484    0.9960276     1.794722 -0.0005489432     18789.77
        9485    0.9961652     1.794047 -0.0006076861      18771.8
        9486    0.9962621     1.793515 -0.000541498     18762.26
        9487     0.996488     1.792934 -0.0005348814     18768.16
        9488    0.9963758     1.792556 -0.0005429527     18776.93
        9489    0.9961176     1.791907 -0.0005403529     18786.21
        9490    0.9957506     1.791343 -0.0005627567     18787.95
        9491    0.9955166     1.790772 -0.0005937492     18779.38
        9492    0.9955923     1.790305 -0.000584458     18763.28
        9493    0.9958284     1.789532 -0.0005750369     18759.61
        9494    0.9958622     1.789006 -0.0005685364     18766.41
        9495    0.9957086     1.788472 -0.0005230218     18778.37
        9496    0.9954431     1.788031 -0.000514555     18787.26
        9497    0.9951681      1.78744 -0.0005618713     18789.01
        9498    0.9948664     1.786947 -0.000608951     18787.82
        9499    0.9949235     1.786224 -0.0006352117     18787.81
        9500    0.9949235     1.786224 -0.0006352117     18787.81
