# This file has been produced by extranormal (v 1.0.1 - February 23, 2017)
# O. Roudenko - Synchrotron SOLEIL. Covered by GPL licence.
#Data from HDF File: /nfs/ruche-rock/rock-soleil/com-rock/2022/Projets/20220725_Gilles/op2_cell3_cell4/op2_cell4_pos1_dq1/op2_cell4_pos1_dq1_0050/op2_cell4_pos1_dq1_0050_05218.nxs to op2_cell4_pos1_dq1_0050_05241.nxs
#Time at start=2022-07-27 08:23:05.188
#Time from start (seconds)=64.7702923412
#Sample temperature (C)=nan
# Normalization -------------
# pivot spectrum: LNO_pristine_av1100_00001.txt
# E0=8332.88   Eshift=-0.199996103846
# E0_pivot = 8349.6
# pre-edge params: from E0_pivot-240.0 to E0_pivot-50.0
# pre-edge range: [8109.6, 8299.6]
# post-edge params: from E0_pivot+70.0 to E0_pivot+1155.0
# post-edge range: [8419.6, 9500.0]
# I jump at E0_pivot = 0.79775176361
# shifted energy	normalized	reference	ref.derivative	I0
        8060  0.001371523      1.03899 -0.0004402509     14938.93
        8065  0.001373497     1.036783 -0.0004687891     14958.93
        8070  0.001125298     1.034295 -0.0004508696     14984.21
        8075 3.470358e-05     1.032126 -0.0004609724     15007.03
        8080  0.001238172     1.029973 -0.0004503545     15029.42
        8085  0.001322279     1.027563 -0.0004467699     15048.06
        8090 0.0003280726     1.025288 -0.000454347     15071.21
        8095 0.0002976741      1.02319 -0.0004403501     15095.11
        8100  0.001000658     1.020886 -0.000439399     15117.27
        8105 0.0006582905     1.018756 -0.000446702     15139.68
        8110 -0.0003436255       1.0165 -0.0004308196      15158.6
        8115  0.000862017     1.014256  -0.00042597     15177.71
        8120 0.0004363588     1.012269 -0.000416569     15198.37
        8125 -0.0005407337     1.010237 -0.0004149616     15219.77
        8130 -0.0001828995     1.008169 -0.0004141393     15242.03
        8135  0.001304792     1.005957 -0.0004150328      15262.9
        8140 0.0008136939     1.003987 -0.0004210098     15281.94
        8145 -0.0003390241     1.001936 -0.0004133546     15304.58
        8150 -0.0001641511    0.9997488 -0.0004066882      15322.1
        8155 -1.039494e-05    0.9976901 -0.0004168474     15344.24
        8160 0.0007097786    0.9958528 -0.0004177581      15363.6
        8165  0.001755688    0.9935992 -0.0004247047     15392.27
        8170 0.0009823606    0.9913937 -0.0004445529     15409.92
        8175 0.0003476618     0.989196 -0.0004252139     15432.87
        8180 0.0009729282    0.9869617 -0.0004266415     15452.41
        8185 -0.0009897522    0.9850949 -0.0004209333     15472.16
        8190 -0.0007963769    0.9828608 -0.0004072643     15495.04
        8195 -0.0009839393    0.9807773 -0.0004156788     15516.63
        8200 -0.0002818854    0.9788164 -0.0004073907     15533.52
        8205 -0.001913609    0.9767814 -0.0004055628     15557.65
        8210 -0.001789328     0.974713 -0.000412478     15574.15
        8215 -0.001654424     0.972666 -0.0004242864     15594.64
        8220 -0.001518521    0.9705668 -0.0004129297     15617.64
        8225 -0.0006094723    0.9682956 -0.0004025522     15639.07
        8230 4.108422e-05    0.9664544 -0.0003969603     15659.73
        8235 -0.0008136682     0.964615 -0.0003878309     15677.85
        8240 -0.001134293    0.9626276 -0.0003795264     15698.96
        8245  0.001158698     0.960539 -0.0003894654     15720.94
        8250 0.0001360538    0.9588639 -0.0003777799      15739.4
        8255 -0.0002197247    0.9568257 -0.0003567987     15756.78
        8260 0.0002935818     0.955072 -0.000367247     15777.31
        8265  0.000239169     0.953403 -0.0003429992     15797.93
        8270  0.001875882    0.9515189 -0.000339299     15819.23
        8275 0.0005180666    0.9499657 -0.0003367258     15836.33
        8280 -1.685495e-05    0.9482861 -0.0003214795     15855.12
        8285 0.0004289741    0.9466685 -0.0003108505     15866.74
        8290 0.0006635916    0.9450894 -0.0002969589     15879.99
        8295 0.0009553288    0.9437487 -0.000278859     15890.31
        8300  0.004584351    0.9424746 -0.0002172721     15819.32
      8300.2  0.004693096    0.9425513 0.0002551283     15808.84
      8300.4  0.004779278    0.9425883 -4.531915e-05     15799.56
      8300.6  0.004710865    0.9426017 -0.0001091863     15791.56
      8300.8  0.004816861    0.9424384 -0.000312921     15786.41
        8301  0.004687528     0.942464 -0.0002739883     15781.57
      8301.2  0.004769318    0.9423379 -0.0002164261     15779.03
      8301.4  0.004654475    0.9423825 -0.0003881467     15776.88
      8301.6  0.004562054    0.9422652 -0.000387075     15775.89
      8301.8   0.00447654    0.9421535 -0.0005094476     15775.75
        8302  0.004453964    0.9420283 -0.0003596279     15775.22
      8302.2   0.00438476    0.9419749 -0.0003899369     15774.59
      8302.4  0.004348759    0.9419775 -0.0002236407     15773.86
      8302.6   0.00423493    0.9418415 -0.0003326104      15771.7
      8302.8  0.004185917    0.9418494 -0.0004075235     15769.65
        8303  0.004273738    0.9417089 -0.0003065645     15766.16
      8303.2  0.004237402    0.9416515 -0.0001563154     15761.48
      8303.4  0.004383423    0.9415963 -4.251472e-05     15756.38
      8303.6  0.004377899    0.9417243 -6.658703e-05     15748.19
      8303.8  0.004523244    0.9416748 -9.359947e-05     15738.22
        8304  0.004716876    0.9415983 -0.0002609092     15725.52
      8304.2  0.004962567    0.9415214 -0.0002356755      15708.6
      8304.4  0.005340666    0.9415156 -0.0002022882     15686.78
      8304.6  0.005756034    0.9414863 -0.000384484     15658.03
      8304.8  0.006425298    0.9414364 -0.0006423075     15621.28
        8305  0.007228605    0.9412138 -0.0009027574      15572.7
      8305.2   0.00793023    0.9410017 -0.0009117873     15511.71
      8305.4   0.00857779    0.9407641 -0.0005742316     15439.38
      8305.6  0.008996184     0.940707 -0.0001671454     15359.56
      8305.8  0.009071391    0.9407544 0.0004420381     15280.84
        8306  0.008718484     0.940868 0.0006890702     15209.11
      8306.2  0.008147961    0.9411177 0.0008291973     15151.82
      8306.4  0.007345913    0.9412582 0.0008498996     15113.57
      8306.6  0.006351887    0.9414178 0.0006130546     15096.27
      8306.8  0.005467012    0.9415479 0.0005432764      15101.2
        8307  0.004682093    0.9416082 0.0004448019     15125.93
      8307.2  0.004147701    0.9416929 0.0003265023     15163.67
      8307.4   0.00376273    0.9417736 0.0003966361     15209.26
      8307.6  0.003435348    0.9418091 0.0003756379     15262.79
      8307.8  0.003143566    0.9419255 0.0005766961     15319.84
        8308  0.002879976    0.9419934 0.0006013495     15378.91
      8308.2  0.002599728     0.942235 0.0004489655     15440.03
      8308.4  0.002423883    0.9422902 0.0004062758     15502.67
      8308.6  0.002377677    0.9422847 5.674431e-05     15567.28
      8308.8  0.002376336    0.9423184 -0.0001941951      15630.2
        8309  0.002666134    0.9422804 -0.0003915087     15687.95
      8309.2  0.003056317    0.9421349 -0.0007891923     15735.52
      8309.4  0.003482115    0.9419714 -0.0009356096     15771.88
      8309.6  0.004057405     0.941687 -0.0009772867     15796.19
      8309.8   0.00475153    0.9415319 -0.0008143282     15806.55
        8310  0.005154231     0.941353 -0.0003818209     15805.72
      8310.2  0.005293629      0.94132 -2.104453e-05     15798.96
      8310.4  0.005332993    0.9413816 0.0003611301     15791.79
      8310.6  0.005328282     0.941515 0.0004338236     15786.28
      8310.8  0.005154975    0.9416419  0.000201267     15783.69
        8311  0.005014318     0.941667 -0.000130256     15785.86
      8311.2  0.005161365    0.9415426 -0.0004968679     15794.33
      8311.4  0.005403657    0.9414108 -0.0007245831      15800.6
      8311.6  0.005968503    0.9412444 -0.0004659425     15802.57
      8311.8   0.00624812    0.9410874 -0.0001723432     15793.45
        8312  0.006528121    0.9411698 0.0001759057     15780.53
      8312.2  0.006771332     0.941273   0.00056118     15766.17
      8312.4  0.006924741    0.9413852 0.0005120385     15752.55
      8312.6  0.006871685    0.9415363 0.0003555905     15740.37
      8312.8  0.006850326    0.9415795 -7.725407e-05     15731.91
        8313  0.007080657    0.9415574 -0.0004012937     15725.67
      8313.2  0.007685639    0.9413234 -0.0006535451     15714.33
      8313.4  0.008400096    0.9412153 -0.0008258341     15689.93
      8313.6  0.009199354    0.9410566 -0.0007685136     15650.95
      8313.8   0.01015426    0.9408968 -0.0006347151     15593.02
        8314   0.01080168    0.9407086 -0.0002676197     15516.96
      8314.2   0.01121948    0.9407075 0.0002348777     15432.63
      8314.4   0.01125094    0.9408425  0.000850788     15346.32
      8314.6   0.01107426    0.9410847  0.001259542     15271.27
      8314.8   0.01041303    0.9413892  0.001533732     15211.36
        8315  0.009758652    0.9417151  0.001435552     15171.83
      8315.2  0.009023827    0.9420695  0.001324877     15158.85
      8315.4  0.008323485    0.9422331  0.001216327     15168.84
      8315.6   0.00784164    0.9424491 0.0008276326     15195.73
      8315.8  0.007473104    0.9426882 0.0009056235     15234.38
        8316  0.007445972    0.9427316 0.0007456656      15278.2
      8316.2  0.007310909    0.9429576 0.0005068172     15321.73
      8316.4  0.007309541    0.9430456  0.000738033     15365.25
      8316.6  0.007123661    0.9430937 0.0005630909     15407.21
      8316.8  0.006982891    0.9433221 0.0005313131     15450.51
        8317  0.006792233    0.9434081 0.0003850528     15493.39
      8317.2   0.00667835    0.9434707 0.0001146803     15536.76
      8317.4  0.006639228    0.9434017 1.614703e-06     15579.59
      8317.6  0.006606725    0.9434138 -1.531217e-05     15622.85
      8317.8  0.006573571    0.9434094 0.0001861836     15665.53
        8318  0.006689633    0.9434584 0.0002727483     15706.26
      8318.2  0.006801386    0.9435506 0.0004878958     15741.57
      8318.4  0.006992874     0.943632 0.0006304097     15771.83
      8318.6   0.00712288    0.9437997 0.0005359643     15796.98
      8318.8   0.00725959    0.9439627 0.0005573996     15818.45
        8319  0.007370241    0.9439794 0.0005063635     15836.67
      8319.2  0.007477281    0.9440779 0.0003813899     15852.37
      8319.4  0.007391357    0.9442048 0.0004724357     15863.99
      8319.6    0.0073264    0.9442679 0.0006040349     15874.46
      8319.8  0.007387157    0.9443574 0.0006005001     15884.33
        8320  0.007344992    0.9445612  0.000624287     15892.48
      8320.2  0.007477613    0.9446852 0.0007189357     15900.82
      8320.4    0.0076238    0.9447673 0.0006999879     15907.72
      8320.6  0.007718042    0.9449325 0.0007681987     15913.99
      8320.8  0.007822826    0.9451211 0.0007642751     15919.24
        8321  0.007959322    0.9452997 0.0009170595     15924.51
      8321.2  0.008129251    0.9453787 0.0008526513     15929.51
      8321.4  0.008169618    0.9456662 0.0008585624     15934.32
      8321.6  0.008192948    0.9458033   0.00135829     15938.95
      8321.8  0.008254885    0.9459866  0.001399174     15943.78
        8322  0.008281512    0.9464653   0.00168012     15948.85
      8322.2    0.0083839    0.9467855  0.001887396     15954.28
      8322.4  0.008449674    0.9471474  0.001692241     15959.65
      8322.6  0.008487094    0.9474965  0.001587027      15965.5
      8322.8  0.008578664    0.9478191  0.001658399     15972.13
        8323  0.008721591    0.9480551  0.001621201     15979.38
      8323.2  0.008727562    0.9484741  0.001604213     15986.82
      8323.4  0.008885567    0.9487935  0.001866157     15994.75
      8323.6  0.009100835    0.9491025  0.001642829     16002.56
      8323.8  0.009153086    0.9495481  0.001834221     16009.78
        8324  0.009392557    0.9497883  0.001886286     16017.16
      8324.2  0.009476848    0.9502609  0.001807539     16023.54
      8324.4  0.009621417    0.9506115  0.001934835     16028.83
      8324.6   0.00968189    0.9509941  0.001887951     16032.52
      8324.8  0.009889309    0.9513362  0.002146895     16036.17
        8325   0.01002434    0.9517712  0.002420357      16038.6
      8325.2   0.01013251     0.952329  0.002667795      16040.4
      8325.4   0.01031561    0.9529304  0.002938057     16042.46
      8325.6   0.01049819    0.9534704  0.003224344     16044.02
      8325.8   0.01071093    0.9541217  0.003454258     16045.61
        8326   0.01091812    0.9549085  0.003852405     16046.84
      8326.2   0.01121276    0.9556938  0.003939086     16048.01
      8326.4    0.0114444    0.9565524  0.003935875     16049.45
      8326.6   0.01185104    0.9572729  0.004207595     16050.57
      8326.8   0.01218966    0.9580572   0.00445532     16052.11
        8327   0.01248029    0.9590599  0.005040926     16053.76
      8327.2   0.01276285    0.9601166  0.005440255     16054.73
      8327.4   0.01304607    0.9613057  0.005720382      16055.6
      8327.6   0.01333249    0.9624094  0.006016232     16055.79
      8327.8   0.01360493    0.9636362  0.006195859     16056.83
        8328      0.01394    0.9649296  0.006642316     16058.59
      8328.2   0.01405265    0.9662624  0.007190239     16058.95
      8328.4    0.0142579    0.9677233  0.007856787     16059.74
      8328.6   0.01445749    0.9693883  0.008754183     16060.48
      8328.8   0.01473987     0.971215  0.009717881     16061.91
        8329    0.0148847    0.9732657   0.01081738     16062.16
      8329.2   0.01511506    0.9754976   0.01199599      16062.7
      8329.4   0.01533763    0.9780423   0.01325046     16063.25
      8329.6   0.01567514    0.9808118   0.01491836     16064.29
      8329.8    0.0160401    0.9838661   0.01700862     16065.55
        8330   0.01632408    0.9874323   0.01986524     16066.38
      8330.2   0.01673912    0.9916491   0.02335337     16067.85
      8330.4   0.01702086     0.996704   0.02735681     16068.27
      8330.6    0.0174329     1.002549    0.0320054     16069.22
      8330.8    0.0178063     1.009318   0.03833103     16069.66
        8331   0.01841276     1.017253   0.04647594     16070.68
      8331.2   0.01909429     1.027369   0.05695003     16071.84
      8331.4   0.01980632      1.03973   0.06918666     16072.73
      8331.6   0.02046038     1.054878   0.08196876     16072.83
      8331.8   0.02144786     1.072603    0.0954996     16073.98
        8332   0.02242781     1.092944      0.10918     16074.13
      8332.2   0.02355011     1.116129    0.1214143     16074.28
      8332.4    0.0247863     1.142222     0.131763     16073.73
      8332.6   0.02636231     1.169734    0.1397611     16074.03
      8332.8   0.02817421     1.198354     0.144916     16073.67
        8333    0.0303363     1.227938    0.1481282     16074.29
      8333.2     0.032747     1.258155    0.1485255     16074.07
      8333.4   0.03545859     1.288237    0.1462918     16073.78
      8333.6   0.03852609     1.317175    0.1424476     16074.05
      8333.8   0.04147999     1.344971    0.1378415     16072.79
        8334    0.0446839     1.372113    0.1325441     16072.66
      8334.2   0.04780897      1.39851    0.1261603     16071.98
      8334.4     0.050789      1.42321    0.1185614     16072.54
      8334.6   0.05314912       1.4459    0.1097123     16072.62
      8334.8   0.05490348     1.466962    0.1009794     16072.72
        8335   0.05596776      1.48628   0.09284445     16072.69
      8335.2   0.05634673     1.503993    0.0850688      16072.7
      8335.4   0.05633606     1.520175   0.07646962     16073.04
      8335.6   0.05592872     1.535017   0.06850577      16073.1
      8335.8   0.05548768     1.547456   0.06123654     16074.33
        8336    0.0549556     1.558798   0.05481863     16074.67
      8336.2   0.05447998     1.569165   0.05063431      16075.3
      8336.4   0.05430884     1.578872   0.04712192     16076.81
      8336.6   0.05418925     1.587963   0.04393419     16077.29
      8336.8   0.05426654     1.596496   0.04169013     16077.83
        8337    0.0546025     1.604312   0.04057191     16078.89
      8337.2   0.05513822     1.612224   0.04076316     16079.72
      8337.4     0.055966     1.620421   0.04276116     16080.91
      8337.6   0.05704656     1.629106   0.04559032     16082.22
      8337.8   0.05838539     1.638521   0.04874591     16083.85
        8338   0.05979503     1.648696   0.05240002     16085.07
      8338.2   0.06142795     1.659417   0.05575796     16086.09
      8338.4   0.06326372     1.671026   0.05858406     16087.19
      8338.6   0.06526468     1.683127   0.06161757     16088.39
      8338.8   0.06735073     1.695563    0.0633307     16089.02
        8339   0.06962751     1.708711   0.06445015     16090.16
      8339.2   0.07205913     1.721691   0.06521779     16091.25
      8339.4   0.07465797     1.734687   0.06432718     16091.86
      8339.6    0.0775273     1.747737   0.06280969      16092.5
      8339.8   0.08060648     1.760173   0.06108395     16092.68
        8340   0.08393843     1.771938   0.05928226     16093.58
      8340.2   0.08747437     1.783554    0.0583974     16094.42
      8340.4   0.09112024     1.795163   0.05781531        16094
      8340.6   0.09549966     1.806891    0.0573058     16095.49
      8340.8   0.09991475     1.818191   0.05719894     16096.04
        8341    0.1045709     1.829399   0.05764363     16096.42
      8341.2     0.109574     1.840922   0.05958525     16096.66
      8341.4    0.1153027     1.853006    0.0626388     16097.54
      8341.6    0.1217006     1.865859   0.06627829     16098.21
      8341.8    0.1287568      1.87951    0.0700027     16098.81
        8342    0.1364274     1.893945   0.07353013      16099.1
      8342.2    0.1447606     1.909008   0.07861069     16099.46
      8342.4    0.1540004     1.924683   0.08379499     16100.67
      8342.6     0.164726     1.942399   0.08954253     16101.35
      8342.8    0.1764889     1.960981   0.09492808     16101.32
        8343    0.1894769     1.980642   0.09919193     16102.17
      8343.2    0.2035214     2.000625    0.1032352     16102.81
      8343.4    0.2188059     2.021752    0.1071254     16103.95
      8343.6    0.2351953     2.043569    0.1109725     16104.22
      8343.8    0.2527375     2.066342     0.114402     16105.37
        8344    0.2712272     2.089404     0.117946     16105.25
      8344.2    0.2906083     2.113274    0.1200886     16105.82
      8344.4    0.3107822     2.137926    0.1226919     16106.31
      8344.6    0.3319043     2.162413    0.1251205      16106.7
      8344.8    0.3532937     2.187557    0.1268084     16106.86
        8345    0.3750921      2.21337    0.1293951     16107.21
      8345.2    0.3970839     2.239373    0.1318784     16108.35
      8345.4    0.4197177     2.265929    0.1339753     16108.79
      8345.6    0.4426583      2.29306     0.134564      16109.6
      8345.8    0.4660679     2.320551    0.1343109     16110.63
        8346    0.4887421     2.347024    0.1331912      16111.9
      8346.2    0.5115303     2.373378    0.1308631      16112.3
      8346.4    0.5347541     2.399613    0.1300141      16113.6
      8346.6    0.5582766     2.425241    0.1287365      16114.8
      8346.8    0.5823912     2.451035    0.1248422     16115.76
        8347    0.6067906     2.476367    0.1206134     16116.46
      8347.2    0.6306181     2.499486    0.1144248     16117.44
      8347.4    0.6549536     2.521732    0.1072028     16118.34
      8347.6    0.6796775     2.542575    0.1013589     16118.23
      8347.8    0.7052328     2.562129   0.09411955     16118.66
        8348    0.7313429     2.580574   0.08571916     16119.36
      8348.2    0.7572921     2.597027   0.07645353     16119.56
      8348.4    0.7832178      2.61115   0.06600609     16119.31
      8348.6    0.8088135     2.623292   0.05655792     16119.06
      8348.8    0.8347334     2.633378   0.04816374     16119.13
        8349    0.8605965     2.642274   0.03971756      16119.3
      8349.2    0.8860722     2.649681   0.03282126     16118.83
      8349.4    0.9106316     2.655066   0.02521649     16118.84
      8349.6    0.9349963     2.659636   0.01771466     16118.49
      8349.8      0.95897     2.662447   0.01268505     16118.94
        8350    0.9824389     2.663853  0.007868031     16119.29
      8350.2     1.005636     2.665214  0.003735343     16118.95
      8350.4     1.028971      2.66593 0.0003539784      16119.2
      8350.6      1.05252     2.665435 -0.003687484     16119.96
      8350.8     1.076497     2.664136 -0.007497701     16120.06
        8351     1.101144     2.662264  -0.01016261     16119.84
      8351.2     1.126216     2.659932  -0.01232057     16120.38
      8351.4       1.1515     2.657305  -0.01369846     16121.07
      8351.6     1.178008      2.65428  -0.01563231     16121.42
      8351.8     1.206036     2.651306  -0.01639865     16121.02
        8352     1.235542     2.647426  -0.01711826     16121.31
      8352.2     1.265373     2.644186  -0.01619151      16121.4
      8352.4     1.295321     2.640585  -0.01488458     16121.51
      8352.6     1.325523     2.638352  -0.01469339     16121.61
      8352.8     1.357648     2.635518  -0.01267378     16121.93
        8353     1.390181     2.632431   -0.0113248     16122.13
      8353.2     1.423401     2.630446 -0.007888804     16121.76
      8353.4     1.454972     2.629293 -0.004683262     16122.77
      8353.6     1.485098     2.629207 0.0008711918     16122.87
      8353.8     1.513355     2.628685  0.005929401     16122.86
        8354     1.539823     2.631143   0.01158221     16123.93
      8354.2     1.562022     2.634036   0.01796895     16124.47
      8354.4      1.57977     2.638473   0.02129816     16124.63
      8354.6     1.591804      2.64306   0.02563934      16126.4
      8354.8     1.597498     2.648182   0.02838262     16126.81
        8355     1.597872     2.654548   0.03345919     16127.68
      8355.2     1.591922     2.661179   0.03637228     16127.84
      8355.4     1.580228     2.669827   0.03974767     16128.94
      8355.6     1.563608     2.677279   0.04226374     16129.57
      8355.8     1.542594     2.686346   0.04270189     16130.59
        8356     1.517056      2.69499   0.04249178     16131.03
      8356.2     1.489067     2.703989   0.04202995     16132.43
      8356.4      1.45925     2.711273   0.03992244      16133.7
      8356.6     1.427902      2.71997   0.03596444     16134.38
      8356.8     1.395857     2.726928   0.03360541     16135.23
        8357     1.363534      2.73276   0.02927133     16136.05
      8357.2     1.331505     2.738157   0.02519819      16136.7
      8357.4      1.30172     2.743387   0.02170011     16137.78
      8357.6     1.273625     2.747087   0.01584176     16138.61
      8357.8     1.247537     2.750121    0.0100966     16139.56
        8358     1.222237     2.750831  0.004256489     16140.33
      8358.2     1.199055     2.751464 -0.0009191367     16141.22
      8358.4     1.177763     2.750492  -0.00387233     16142.39
      8358.6     1.158845     2.749385 -0.008681806     16142.72
      8358.8      1.14196     2.747733  -0.01158337     16144.35
        8359     1.126557     2.744519  -0.01486969      16145.3
      8359.2     1.112218     2.741225  -0.01805111     16145.79
      8359.4     1.099914     2.737489  -0.02015625     16146.29
      8359.6     1.089154     2.733292   -0.0210373     16146.84
      8359.8     1.080154     2.728394  -0.02214499     16148.02
        8360     1.072395     2.724395   -0.0226597     16148.36
      8360.2      1.06563     2.719773   -0.0218956     16148.89
      8360.4     1.059788     2.715164   -0.0221339     16148.98
      8360.6     1.055008     2.710877  -0.02082273        16151
      8360.8     1.050935     2.706688  -0.01984442     16150.59
        8361     1.047469     2.703115  -0.01857312      16151.6
      8361.2     1.044473     2.699289  -0.01781994     16151.82
      8361.4     1.042285     2.696019  -0.01856376     16153.58
      8361.6     1.040299     2.692432   -0.0170874     16154.85
      8361.8     1.038457     2.688264  -0.01706869     16155.02
        8362     1.036835     2.685619  -0.01750809     16156.07
      8362.2     1.035292     2.682364  -0.01610481     16157.19
      8362.4     1.033857     2.678426  -0.01725185     16157.92
      8362.6       1.0325      2.67538  -0.01727464     16158.43
      8362.8     1.031383     2.671817  -0.01757727     16160.04
        8363     1.030172     2.668544  -0.01950566     16160.49
      8363.2      1.02885     2.664364  -0.02078545     16161.52
      8363.4     1.027539     2.659776  -0.02234982      16162.6
      8363.6     1.026303     2.655189  -0.02292334     16164.04
      8363.8     1.025094     2.650664  -0.02341155     16165.36
        8364     1.023716     2.646025  -0.02316298      16165.9
      8364.2     1.022147     2.641047  -0.02520004     16166.53
      8364.4     1.020661     2.636658  -0.02496982     16167.62
      8364.6       1.0191     2.630504  -0.02541222     16167.74
      8364.8     1.017861     2.626049  -0.02552004     16169.16
        8365     1.016692     2.620717  -0.02273319     16170.57
      8365.2      1.01563     2.616242  -0.02185524     16171.44
      8365.4     1.014872     2.612318  -0.01976274     16172.46
      8365.6     1.014296     2.608565  -0.01811289     16173.64
      8365.8     1.014054     2.604907  -0.01699091     16174.58
        8366     1.014313     2.601752  -0.01617328     16175.95
      8366.2     1.014943     2.598725  -0.01457951     16177.45
      8366.4     1.015944     2.595627  -0.01345738     16178.59
      8366.6     1.017314     2.593243  -0.01234316     16180.03
      8366.8     1.019047     2.590986  -0.01078126     16180.87
        8367      1.02098      2.58885   -0.0105514     16181.72
      8367.2     1.023348     2.587002  -0.00967283     16182.33
      8367.4     1.026161     2.584802 -0.007932084     16183.55
      8367.6     1.029193     2.583248 -0.007139878     16184.53
      8367.8     1.032414     2.582505 -0.006275067     16185.35
        8368     1.035828      2.58129 -0.005381405      16186.8
      8368.2     1.039432     2.579782 -0.004943109     16188.23
      8368.4     1.042988     2.578943 -0.004767328     16188.82
      8368.6     1.046604      2.57855 -0.003699646     16190.17
      8368.8     1.049884     2.577476 -0.003341469     16191.16
        8369      1.05298     2.576822 -0.003565233     16192.12
      8369.2     1.055653      2.57627 -0.002450972     16193.61
      8369.4     1.057964     2.575698 -0.002079195      16193.7
      8369.6     1.060023     2.575515 -0.0005298927      16194.3
      8369.8     1.061561     2.575159 0.0004760179     16195.22
        8370     1.062232     2.575846 0.0009175164     16195.68
      8370.2      1.06252     2.576079  0.002207525     16197.13
      8370.4     1.062174     2.576249  0.002195913     16198.04
      8370.6     1.061251     2.576925  0.003433801     16198.27
      8370.8     1.059954     2.577602  0.005746205     16199.42
        8371     1.058112     2.578826  0.006456711     16200.55
      8371.2     1.055906     2.580846  0.008204753     16201.18
      8371.4     1.053153      2.58209  0.009364065      16202.1
      8371.6     1.050068     2.584166  0.009565546     16202.73
      8371.8     1.046887     2.586317   0.01162213     16204.33
        8372     1.043317     2.588498   0.01201939     16204.91
      8372.2     1.039681     2.591388   0.01341386     16205.74
      8372.4     1.035716     2.593782   0.01462393     16205.96
      8372.6     1.031725     2.597048   0.01531155     16207.07
      8372.8     1.027413     2.600198   0.01622561     16206.68
        8373     1.023124     2.603637   0.01734467     16207.63
      8373.2     1.018897     2.606762   0.01869342     16209.09
      8373.4     1.014313     2.610924   0.01985653     16209.44
      8373.6     1.009534     2.615152   0.02116862     16209.82
      8373.8     1.004806     2.619522   0.02178674     16211.06
        8374    0.9999318     2.623697    0.0226664     16211.07
      8374.2    0.9949484     2.628353   0.02317667     16211.65
      8374.4    0.9899468     2.633285   0.02431357     16212.56
      8374.6    0.9845924     2.638064    0.0247066     16212.65
      8374.8    0.9790548     2.643148   0.02491983     16212.94
        8375    0.9734066     2.648119   0.02610549     16213.14
      8375.2    0.9677546     2.653221   0.02651173     16214.14
      8375.4    0.9619956     2.658948   0.02689333     16214.33
      8375.6    0.9562451     2.664357   0.02791673     16214.79
      8375.8    0.9505464     2.669633   0.02760596     16216.62
        8376     0.944357     2.675555   0.02751085     16216.66
      8376.2    0.9383347     2.681033   0.02810824     16217.28
      8376.4    0.9323464     2.686366   0.02811864      16218.3
      8376.6    0.9266487      2.69212   0.02874965     16219.27
      8376.8    0.9206222      2.69805   0.02927074        16220
        8377    0.9147558     2.704033   0.03016941     16221.09
      8377.2     0.908843     2.709783   0.02994539     16222.06
      8377.4    0.9032688     2.716255   0.03036458     16223.42
      8377.6    0.8978048     2.722006   0.03007417     16224.24
      8377.8    0.8925778     2.728324    0.0295383     16225.09
        8378    0.8875229     2.733842   0.03060939      16226.1
      8378.2    0.8826858     2.739886   0.02973063     16227.07
      8378.4    0.8780264     2.746493   0.03026986     16227.29
      8378.6    0.8733488     2.752109   0.02971639     16227.25
      8378.8    0.8691563     2.758058   0.02856342     16228.12
        8379    0.8649911     2.763659   0.02811908     16229.05
      8379.2    0.8609096     2.769344   0.02715191     16229.44
      8379.4    0.8572175     2.774604   0.02720459     16230.91
      8379.6    0.8535826     2.779779   0.02542547     16232.19
      8379.8    0.8498759     2.785423   0.02490005     16232.86
        8380    0.8464358     2.789685    0.0237107     16233.96
      8380.2    0.8430528     2.794524   0.02206986     16234.54
      8380.4    0.8398779     2.798748   0.02134991     16234.79
      8380.6    0.8370276     2.803079   0.01955151     16235.77
      8380.8    0.8341194     2.806764   0.01803625     16236.81
        8381    0.8311987     2.810165   0.01593889     16237.37
      8381.2    0.8285122     2.813177   0.01381868     16238.65
      8381.4     0.825978      2.81583   0.01148102      16239.1
      8381.6    0.8235042     2.817819  0.009308442      16239.3
      8381.8    0.8213142      2.81935  0.007376613     16240.42
        8382    0.8189684     2.820624  0.005288028     16241.63
      8382.2    0.8167279     2.821731    0.0040212     16242.44
      8382.4     0.814448      2.82205  0.002103425     16242.79
      8382.6    0.8124084     2.822567 -2.899596e-05     16243.93
      8382.8    0.8103947     2.822306 -0.001993237     16244.76
        8383     0.808557     2.821708 -0.004458289     16245.86
      8383.2    0.8066162     2.820455 -0.005815099     16245.99
      8383.4    0.8049624        2.819 -0.007473443     16247.13
      8383.6    0.8032954     2.817654 -0.009020895     16247.25
      8383.8    0.8016905     2.815729 -0.009983181     16248.39
        8384    0.8004357     2.813238  -0.01178773     16249.41
      8384.2    0.7993027     2.811014   -0.0138259     16250.55
      8384.4    0.7982287     2.808224  -0.01519385      16251.3
      8384.6    0.7972709     2.804668  -0.01712134     16251.84
      8384.8    0.7963822     2.801083   -0.0182029     16252.56
        8385    0.7954736     2.797317  -0.01893589     16252.01
      8385.2    0.7949399     2.793662  -0.02055382     16253.42
      8385.4    0.7944667      2.78952  -0.02154164     16254.09
      8385.6    0.7941309      2.78464  -0.02319411     16254.35
      8385.8    0.7940059     2.780083  -0.02457826     16255.79
        8386    0.7939391     2.775107  -0.02619661     16255.91
      8386.2    0.7941004     2.769857  -0.02653782     16256.65
      8386.4    0.7943465     2.763683  -0.02716466     16257.21
      8386.6    0.7946891     2.758853   -0.0284962      16257.8
      8386.8    0.7952021     2.753375  -0.02776608     16258.63
        8387     0.795794      2.74706  -0.03004006     16259.28
      8387.2    0.7966079      2.74147  -0.03179037      16260.3
      8387.4    0.7975331     2.734821  -0.03126527     16261.41
      8387.6    0.7985593     2.727943   -0.0319676     16262.58
      8387.8    0.7996467     2.722048  -0.03138426     16262.67
        8388    0.8008234     2.715896  -0.03079879     16263.02
      8388.2    0.8023073     2.709714  -0.03056732     16263.78
      8388.4     0.804007     2.703304  -0.03056325     16264.83
      8388.6     0.805771     2.697594  -0.02963934     16265.86
      8388.8    0.8075353     2.691446   -0.0289233     16266.19
        8389    0.8094826     2.686002  -0.02859854     16267.13
      8389.2     0.811647     2.680165  -0.02682933     16268.31
      8389.4    0.8136632     2.674715  -0.02712779     16269.18
      8389.6    0.8158777     2.669982  -0.02595449     16269.97
      8389.8    0.8180979       2.6643  -0.02534554     16270.16
        8390    0.8203841     2.659401  -0.02641462     16270.77
      8390.2    0.8226468     2.654439   -0.0244931        16271
      8390.4     0.824978      2.64885  -0.02416069     16270.95
      8390.6    0.8272838     2.644706  -0.02333142     16271.39
      8390.8    0.8296973     2.640073  -0.02248562      16271.6
        8391    0.8321379     2.635774  -0.02289378      16271.6
      8391.2    0.8344554     2.630862  -0.02214291     16272.31
      8391.4    0.8369104     2.626391   -0.0216042        16273
      8391.6    0.8394251     2.622358   -0.0203861     16274.02
      8391.8    0.8418167      2.61849  -0.01972526     16275.14
        8392    0.8442911     2.614553  -0.01971523     16275.34
      8392.2    0.8467475      2.61061  -0.01968585     16275.96
      8392.4    0.8492285     2.606586  -0.01912634     16276.74
      8392.6    0.8517182     2.602742  -0.01853101     16277.35
      8392.8    0.8541751     2.599252  -0.01704908     16278.32
        8393    0.8566799     2.595786  -0.01585682      16279.3
      8393.2     0.859084     2.592947  -0.01470767     16280.05
      8393.4    0.8615316     2.590056   -0.0136659     16280.76
      8393.6    0.8640012     2.587486  -0.01362296     16281.17
      8393.8    0.8666969     2.584853  -0.01271063      16281.7
        8394     0.869432     2.582049  -0.01275755     16283.23
      8394.2    0.8720281     2.579888  -0.01199636     16283.49
      8394.4    0.8748402      2.57728  -0.01071595     16284.66
      8394.6    0.8776181     2.575256 -0.009667933     16285.02
      8394.8    0.8804346     2.573476 -0.008227241        16285
        8395    0.8834889     2.572153 -0.007292706     16286.34
      8395.2    0.8863709     2.570698 -0.006096248     16286.43
      8395.4    0.8893144     2.569422 -0.005400551     16286.99
      8395.6    0.8921982     2.568599 -0.004582878      16287.7
      8395.8    0.8951087     2.567833 -0.003308825     16288.33
        8396    0.8981813     2.567032 -0.002752448     16289.41
      8396.2    0.9011472     2.566775  -0.00236382     16289.57
      8396.4    0.9043759     2.566397 -0.001630264     16290.92
      8396.6    0.9076203     2.565942  -0.00138368     16291.94
      8396.8    0.9108233     2.565727 -0.000509767     16292.89
        8397    0.9141322     2.565668 -9.428309e-05     16294.09
      8397.2    0.9174611     2.565989 0.0005627622     16294.88
      8397.4    0.9209036     2.565866 0.0008142951     16295.21
      8397.6    0.9243721     2.566178 0.0004228326     16296.08
      8397.8    0.9278718     2.566319 0.0005339228     16296.61
        8398    0.9313718     2.566327 -0.0006764764     16296.86
      8398.2    0.9346724     2.566293 -0.0009615069     16296.77
      8398.4    0.9381319     2.565636 -0.0008826015        16297
      8398.6    0.9416404      2.56555 -0.001813619      16297.1
      8398.8    0.9452218     2.565621 -0.001180675     16298.01
        8399    0.9487999     2.564843 -0.0004960008     16298.41
      8399.2    0.9522863     2.564692 -0.001341159     16299.04
      8399.4    0.9556199     2.565153 -0.0002849456        16300
      8399.6    0.9590882     2.564548 -0.001248469     16301.13
      8399.8    0.9624698     2.564615 -0.003097389     16301.06
        8400    0.9656299     2.564231  -0.00308685     16301.74
        8401    0.9810791     2.561699 -0.003011679     16305.13
        8402    0.9948998     2.557137 -0.002798198     16308.49
        8403     1.007943     2.554463 -0.002055978     16311.73
        8404     1.021829     2.553038 6.752491e-05     16315.84
        8405     1.037383     2.553475  0.002396575     16320.47
        8406     1.053431     2.557407   0.00462145     16324.03
        8407     1.069197      2.56405  0.006295559     16328.28
        8408     1.083412     2.571524  0.006967982     16333.63
        8409     1.095105     2.578658  0.006833909     16338.48
        8410     1.104088     2.585279  0.006417431     16342.92
        8411     1.109087     2.591385  0.006204312     16346.52
        8412      1.11028     2.597193  0.006525769     16350.04
        8413     1.107448     2.603475  0.007322378     16353.77
        8414     1.101901     2.611382  0.008721056     16358.58
        8415     1.094966     2.620675   0.01001569     16363.05
        8416     1.087582     2.632078   0.01095411     16367.12
        8417     1.080452     2.643538   0.01143595     16371.72
        8418     1.073302     2.655198   0.01105926     16376.82
        8419     1.066015     2.666419   0.01080831     16381.76
        8420      1.05838     2.676315   0.01057675     16385.09
        8421     1.050504     2.686771    0.0107532     16388.57
        8422     1.042492     2.697505    0.0116727      16392.4
        8423     1.034445     2.709431   0.01242274     16395.23
        8424     1.027188     2.723005   0.01340251     16397.78
        8425     1.020556     2.736462   0.01397707     16399.82
        8426     1.014833     2.751115    0.0141173     16402.29
        8427     1.009993      2.76534   0.01376875     16405.18
        8428     1.005699     2.779475   0.01246928     16408.65
        8429     1.002018     2.791537   0.01037202      16412.1
        8430    0.9990329     2.800992  0.007293346     16415.68
        8431    0.9966285     2.806828  0.003788611     16420.54
        8432    0.9948426     2.808648 -8.166713e-06     16425.23
        8433    0.9932781     2.806691 -0.003821342     16429.38
        8434    0.9925163      2.80096 -0.007565771     16433.13
        8435    0.9923073     2.791542  -0.01066187      16436.8
        8436    0.9925796     2.778385  -0.01326547     16440.15
        8437    0.9931938     2.764044  -0.01510678     16443.27
        8438    0.9940977     2.747898  -0.01609031     16446.26
        8439    0.9949836     2.731115  -0.01686584     16450.95
        8440    0.9955707     2.714024  -0.01716197     16455.95
        8441    0.9956423      2.69658   -0.0170365        16461
        8442    0.9952548      2.67925  -0.01691656     16464.46
        8443    0.9945554     2.662969   -0.0159691      16468.7
        8444    0.9938001     2.646357  -0.01481602     16472.61
        8445     0.992474     2.632704  -0.01343239     16475.18
        8446    0.9910431     2.619986  -0.01171468     16477.93
        8447    0.9896201      2.60924   -0.0109896     16480.57
        8448     0.988283     2.599499   -0.0109081     16484.86
        8449    0.9874038     2.588746  -0.01198524     16489.71
        8450    0.9868141     2.576353  -0.01343328     16494.44
        8451    0.9863876     2.561299  -0.01475322     16498.32
        8452    0.9858544     2.545766  -0.01561026     16502.33
        8453     0.985662     2.529733  -0.01562875     16506.85
        8454     0.985662     2.513912   -0.0150092     16509.73
        8455    0.9857536     2.498784  -0.01385296     16513.14
        8456    0.9861666     2.485729  -0.01195973     16516.93
        8457    0.9869701     2.474321 -0.009361405     16521.12
        8458    0.9879235     2.466073 -0.006532549     16525.76
        8459    0.9892606     2.461338 -0.003393496     16529.09
        8460    0.9903301     2.459599 -0.0004636272     16532.92
        8461    0.9910539     2.460747  0.002193892      16535.8
        8462    0.9915277     2.464219  0.004501437     16540.39
        8463    0.9915312     2.470114  0.006661002     16543.96
        8464    0.9911586     2.477604  0.008447116     16547.06
        8465    0.9900649     2.487391  0.009714876     16550.36
        8466     0.988906     2.498007   0.01066617     16554.43
        8467    0.9871073     2.508973   0.01112164     16558.12
        8468    0.9844261     2.520269   0.01125652     16561.61
        8469    0.9810576     2.531878   0.01123309     16564.87
        8470    0.9773118     2.543033   0.01048204     16568.04
        8471    0.9733001     2.553906  0.009386429     16571.26
        8472     0.968947     2.562197  0.007924961     16574.02
        8473    0.9642241     2.569423  0.005892835     16577.39
        8474    0.9590993     2.574733  0.003874458     16581.83
        8475    0.9536193     2.577477  0.001753603     16584.85
        8476    0.9485629     2.577695 -0.000121768     16588.03
        8477    0.9443662     2.576438 -0.001528892     16589.87
        8478    0.9411642     2.574246 -0.002272824     16592.47
        8479    0.9393534     2.571361 -0.002496233     16596.48
        8480    0.9386086     2.568604 -0.001936854     16601.84
        8481    0.9388653     2.566453 -0.0005582965     16607.98
        8482    0.9403511     2.566499  0.001612626     16612.94
        8483    0.9431285     2.569128  0.004776244     16618.12
        8484    0.9467876     2.575054  0.008166918      16621.8
        8485    0.9511938     2.585558   0.01184198     16623.62
        8486    0.9561389     2.599166   0.01521943     16625.08
        8487    0.9616777     2.616496   0.01765314     16629.11
        8488    0.9668555     2.635932   0.01910714      16632.8
        8489    0.9721925      2.65617   0.01945149     16636.34
        8490    0.9773938     2.675595   0.01893817     16639.55
        8491    0.9825328     2.694302   0.01749472     16643.97
        8492    0.9877726     2.711685   0.01562963     16649.84
        8493    0.9929188     2.726149   0.01320889     16654.19
        8494    0.9979341     2.738114   0.01041934     16656.77
        8495     1.002854     2.747138  0.007710906     16659.67
        8496     1.007125     2.753362  0.005502645     16662.68
        8497     1.010962     2.756993  0.003705272     16666.37
        8498     1.014377     2.760124  0.002037117     16668.88
        8499     1.016877     2.761959 0.0007862146     16671.51
        8500     1.018776      2.76151 -0.000828246     16674.63
        8501     1.020421     2.760138 -0.002570749     16680.13
        8502     1.022126     2.756811 -0.004215703     16684.96
        8503     1.023976     2.751676 -0.006361532     16688.95
        8504     1.025905     2.744648  -0.00854154     16693.09
        8505      1.02772     2.734691  -0.01076113     16696.39
        8506     1.029571     2.722645   -0.0129393     16699.67
        8507     1.031455     2.708631  -0.01497496     16702.83
        8508     1.033278      2.69289  -0.01686493     16706.24
        8509     1.034874     2.674792  -0.01870598      16709.7
        8510     1.036582     2.655185  -0.02031873      16713.3
        8511     1.038634     2.633807  -0.02133922     16717.74
        8512     1.040841     2.611616  -0.02240248     16723.05
        8513     1.044013     2.589435  -0.02316898      16727.4
        8514     1.048909     2.565575  -0.02389324     16728.64
        8515     1.053802     2.541131  -0.02441486     16715.02
        8516     1.056688     2.516043  -0.02423676     16693.23
        8517     1.058922     2.491775  -0.02350618     16685.85
        8518     1.060286     2.468628  -0.02200822      16685.3
        8519     1.060504     2.447107  -0.01994438     16686.14
        8520     1.060998      2.42801  -0.01749222     16685.93
        8521     1.060468     2.411998  -0.01449459     16688.32
        8522     1.058768     2.398659   -0.0111742     16693.33
        8523     1.057449     2.389128 -0.007710694     16698.07
        8524     1.056995     2.383313 -0.004070906     16704.54
        8525     1.056901     2.381155 -0.0006548896      16706.7
        8526     1.054672     2.382376  0.002542087     16709.24
        8527     1.050669     2.386509   0.00549412     16713.57
        8528     1.047028     2.393481  0.008114108      16722.4
        8529     1.042996     2.403131   0.01019085      16728.3
        8530     1.038658     2.414832   0.01170405     16730.31
        8531     1.034764     2.427272   0.01255101     16731.03
        8532     1.032039     2.440297   0.01301076     16735.58
        8533     1.027916     2.453336   0.01294238     16738.45
        8534     1.021815     2.466875   0.01245506     16741.15
        8535     1.016566     2.479042   0.01185002     16747.23
        8536     1.011455     2.490118   0.01090203      16751.4
        8537     1.005958     2.500736  0.009955887     16753.53
        8538     1.001689     2.510483  0.009035997        16753
        8539    0.9970356     2.518865  0.007892941        16755
        8540    0.9918636     2.526262  0.006595309     16764.08
        8541    0.9882058     2.532307  0.005166588     16767.68
        8542    0.9857205     2.536865   0.00363608     16770.07
        8543    0.9826863     2.539531  0.002116603      16774.8
        8544    0.9810131     2.540806 0.0007985764     16781.49
        8545    0.9805549     2.540774 -0.0002790227     16785.54
        8546    0.9791031     2.540059 -0.001056066     16787.22
        8547    0.9775655     2.538415 -0.001584663     16791.22
        8548    0.9763715     2.536582 -0.002056674     16795.03
        8549    0.9755652     2.534435 -0.002459318     16799.38
        8550    0.9761557     2.531832 -0.002646479     16804.02
        8551    0.9765393     2.528578 -0.003027041     16809.84
        8552    0.9768298     2.525996  -0.00320073     16811.53
        8553    0.9778414     2.522327 -0.003273824     16813.85
        8554    0.9791726     2.519029 -0.003538945     16818.49
        8555    0.9800214     2.515483 -0.003622823     16822.36
        8556    0.9816358      2.51184  -0.00379457     16826.52
        8557    0.9833271     2.507836 -0.004118804      16829.7
        8558    0.9846405     2.503851  -0.00430438     16834.67
        8559    0.9857051     2.499008 -0.004190403     16837.33
        8560    0.9866092     2.494623 -0.003760486     16837.65
        8561    0.9877356     2.491074 -0.003030129     16840.61
        8562    0.9888482     2.488809 -0.001755657     16846.63
        8563     0.991071     2.486887 -0.000280941     16851.23
        8564    0.9928767       2.4876   0.00126349     16855.07
        8565    0.9935289      2.48995  0.003281521     16859.18
        8566    0.9940671     2.493863  0.005058023      16864.9
        8567    0.9944115     2.500013  0.006661897     16866.64
        8568    0.9949932     2.507832  0.008081082     16868.01
        8569    0.9947267     2.516598   0.00908327      16872.3
        8570    0.9949059     2.526187  0.009541382     16877.45
        8571    0.9965256     2.536346  0.009534387     16883.99
        8572    0.9982436     2.545998  0.009025199     16892.33
        8573    0.9996011     2.554735  0.008413477     16898.68
        8574     1.001172     2.562288  0.007600845     16901.02
        8575     1.002589         2.57  0.006807953     16902.72
        8576     1.002616     2.576401  0.006174906     16907.51
        8577     1.002593     2.581967  0.005187166     16911.74
        8578     1.003407     2.586988  0.004276512     16917.34
        8579     1.004551     2.590749  0.003370821     16923.07
        8580     1.005529     2.593507  0.002273356     16927.51
        8581     1.006738     2.595451  0.001287194     16931.09
        8582     1.007539     2.596081 0.0001624469     16936.06
        8583     1.008713     2.595898 -0.0008303197     16939.91
        8584     1.010159     2.594157 -0.001857015     16942.47
        8585      1.01128     2.592129 -0.003034064     16942.63
        8586     1.011886     2.588653 -0.004168484     16943.74
        8587     1.012642     2.583761 -0.005475623      16945.3
        8588       1.0139     2.577483 -0.006856157     16947.13
        8589     1.015174     2.570227 -0.008061648     16951.09
        8590     1.016756     2.561229 -0.009012566     16957.92
        8591     1.017867     2.551515 -0.009848391     16963.13
        8592     1.017679     2.541433  -0.01042318     16963.61
        8593     1.018094     2.530833  -0.01112732     16964.61
        8594       1.0189     2.519536  -0.01152958     16967.62
        8595     1.019165     2.507006  -0.01164051     16972.12
        8596     1.019184     2.495314  -0.01161725      16975.3
        8597     1.019314     2.484271  -0.01114067     16976.44
        8598     1.019386     2.473067  -0.01080163     16978.47
        8599     1.018757     2.462443  -0.01048126     16982.37
        8600     1.017648     2.452108 -0.009811762     16988.31
        8601     1.015941     2.442346 -0.009182684     16992.76
        8602      1.01385      2.43382 -0.008275965     16992.76
        8603     1.011896     2.425712 -0.007280395     16996.96
        8604     1.009624     2.419004 -0.006317305     17004.56
        8605     1.007708     2.413225 -0.005355527     17011.68
        8606     1.005751     2.408551 -0.004377283     17015.14
        8607     1.003325      2.40429 -0.003410097     17019.06
        8608     1.000887     2.401495 -0.002557801     17023.27
        8609    0.9979971     2.399584 -0.001734514     17026.38
        8610    0.9956982     2.398319 -0.001106375     17030.21
        8611     0.994342     2.397352 -0.0007319455     17033.82
        8612     0.993973     2.397069 -0.0003832048     17038.51
        8613    0.9936816     2.396656 -0.0001724304        17041
        8614     0.993179     2.396787 1.826758e-05      17043.3
        8615    0.9925956     2.396662  8.35337e-06     17048.09
        8616    0.9923428     2.397142 1.894531e-05     17049.85
        8617    0.9927114      2.39669 -0.0001252549     17051.24
        8618    0.9931939     2.396862 -0.0003996349     17053.46
        8619    0.9938557     2.396161 -0.000244918     17054.17
        8620    0.9943736     2.395544 -0.0003812214     17053.62
        8621    0.9946625      2.39571 -0.0004407967     17048.32
        8622    0.9958687     2.395338 -0.0002333381     17027.56
        8623    0.9972565     2.394398 -0.0003933666     16941.88
        8624    0.9965095      2.39461 -0.000239682     16810.26
        8625    0.9958369     2.394137 -0.0001640597      16839.3
        8626    0.9948811     2.394379 -0.0002020936     16900.11
        8627    0.9962984     2.393742 -0.0001188512     17048.65
        8628    0.9972833     2.393802 -0.0001852578     17086.92
        8629    0.9978527     2.393661 0.0002379751     17096.59
        8630    0.9983937     2.393638 0.0005013156     17102.53
        8631    0.9988229     2.394694 0.0008732447     17109.08
        8632    0.9989001     2.395807  0.001265412     17114.81
        8633    0.9990445     2.397154     0.001415     17117.31
        8634    0.9987739     2.398699   0.00175651     17118.89
        8635    0.9983149     2.400354  0.001970009     17122.87
        8636    0.9976126     2.402833  0.002055447     17127.99
        8637    0.9971254     2.405034  0.002258738     17133.45
        8638    0.9974825     2.406921  0.002139891      17136.4
        8639    0.9975709     2.409389  0.002095146     17138.65
        8640    0.9975916     2.411393  0.002091599     17141.32
        8641    0.9980333     2.413415  0.001963071     17142.84
        8642    0.9985737     2.415288  0.001867536     17144.17
        8643    0.9992403     2.417241  0.001809166     17146.55
        8644    0.9999347     2.418863  0.001664058     17149.83
        8645     1.000351     2.420652  0.001428006     17152.48
        8646     1.000037     2.421944   0.00127103      17157.5
        8647     1.000049     2.422953 0.0009969088     17162.78
        8648     1.000478     2.423947 0.0009102003     17167.03
        8649     1.001284     2.424639 0.0008288323     17171.93
        8650     1.001663     2.425585 0.0007608967     17176.63
        8651     1.002032     2.426268 0.0007141283     17181.57
        8652     1.002766     2.426991 0.0006751477     17186.82
        8653     1.003806     2.427496 0.0007329466     17189.99
        8654     1.003967     2.428285 0.0007282076     17192.45
        8655     1.003751       2.4292 0.0008285975     17196.32
        8656     1.004474     2.429904 0.0009728984     17201.46
        8657       1.0056      2.43081  0.001108396     17204.95
        8658     1.006388     2.432177  0.001153108     17207.78
        8659     1.006832     2.433634  0.001288064     17211.44
        8660     1.007546     2.434516  0.001446566     17213.43
        8661     1.008429     2.435962  0.001503308     17216.84
        8662     1.008749     2.437963  0.001653094     17219.59
        8663      1.00961     2.439647  0.001635968     17222.61
        8664      1.01109     2.441128  0.001500763     17226.53
        8665     1.012742     2.442506  0.001367664     17227.97
        8666      1.01388     2.443966  0.001128384     17229.29
        8667     1.014928     2.445117 0.0009349754     17233.97
        8668     1.015695     2.445642 0.0006358773     17238.53
        8669     1.016758     2.446246 0.0001051911     17242.06
        8670     1.017927      2.44651 -0.0002367544     17246.35
        8671     1.018158     2.445538 -0.000805025      17250.7
        8672      1.01769     2.444695 -0.001409503     17253.22
        8673     1.016855     2.443026  -0.00187399     17255.89
        8674     1.016749     2.440872 -0.002386873     17259.91
        8675     1.016959     2.438042 -0.002812569     17261.95
        8676     1.016581     2.435147 -0.003170337     17264.24
        8677      1.01585     2.431776 -0.003481217     17268.34
        8678     1.014738      2.42819 -0.003734902     17272.43
        8679     1.013873     2.424117 -0.004020959     17278.02
        8680     1.012873     2.420208 -0.004199318     17281.12
        8681     1.011211     2.415692 -0.004367391     17284.49
        8682     1.009532     2.411393 -0.004416793     17289.01
        8683     1.008195     2.406648  -0.00444048     17292.05
        8684      1.00686     2.402541 -0.004588644     17294.45
        8685     1.005097      2.39793 -0.004555959     17295.29
        8686     1.002777     2.393038 -0.004452686     17297.38
        8687     1.000052     2.388424 -0.004329593     17299.35
        8688    0.9977428      2.38473 -0.004034952     17301.91
        8689    0.9956386     2.380612 -0.003640738     17305.91
        8690    0.9937958     2.376899 -0.003326609     17309.93
        8691    0.9919879     2.373861 -0.002864776     17313.05
        8692     0.990646     2.371423 -0.002354054     17316.21
        8693    0.9891393     2.369152 -0.001956758     17319.19
        8694    0.9880379     2.367482 -0.001576665     17323.19
        8695    0.9874394     2.366034 -0.001184602     17327.76
        8696    0.9867916     2.365117 -0.0008748963     17331.87
        8697     0.986261     2.364414 -0.0005938178     17331.28
        8698    0.9861117     2.363983 -0.0005266837     17318.39
        8699    0.9857464     2.363659 -0.0004676413     17305.82
        8700    0.9855358      2.36301 -0.0004485157     17312.29
        8701    0.9859193     2.362543 -0.0006196047     17323.77
        8702    0.9860519     2.362189 -0.0007322619     17337.88
        8703    0.9859581      2.36118 -0.001066856     17346.07
        8704    0.9862376     2.360081 -0.001543808     17350.78
        8705    0.9866593     2.358276 -0.001902534     17351.33
        8706    0.9868796     2.356014 -0.002248745     17342.33
        8707    0.9871512      2.35357 -0.002638458     17333.33
        8708    0.9876971     2.351086 -0.002970575     17339.27
        8709    0.9880821     2.347722 -0.003327121     17349.08
        8710    0.9882771     2.344131 -0.003698347     17360.82
        8711    0.9880912     2.340262  -0.00382295     17369.13
        8712    0.9875954     2.336293 -0.003856683     17374.89
        8713    0.9876001      2.33243 -0.003721729     17379.87
        8714    0.9877315     2.328704 -0.003501005     17383.59
        8715    0.9873631     2.325375 -0.003184289      17387.9
        8716    0.9868865     2.322289 -0.002719499     17392.98
        8717    0.9864999     2.319693 -0.002176926     17395.96
        8718    0.9861258     2.317826 -0.001697672     17398.96
        8719    0.9859503     2.316667 -0.001286268      17405.2
        8720    0.9858689     2.315498 -0.0009498018     17409.74
        8721     0.985935     2.314548 -0.0008318452      17412.3
        8722    0.9857088     2.314027 -0.000592506     17413.52
        8723     0.985369      2.31334 -0.0005736739     17415.18
        8724    0.9851794     2.313128 -0.0005094558     17419.06
        8725    0.9854196     2.312254 -0.0005610844     17424.01
        8726    0.9852625     2.311989 -0.0005437577        17427
        8727    0.9853537     2.311095 -0.0004280629     17431.57
        8728    0.9855367     2.310953 -0.0005088674     17435.03
        8729    0.9859313     2.310541 -0.0003453291     17437.63
        8730     0.986407     2.309954  -0.00039726     17439.25
        8731    0.9871467     2.309714 -0.0002689006     17441.65
        8732    0.9881424     2.309364 -0.000139144     17445.44
        8733    0.9894761     2.309466 -0.0001014767      17451.3
        8734    0.9902766     2.309397 3.098117e-05     17456.12
        8735    0.9904667     2.309308 -8.190401e-06     17459.86
        8736    0.9902451     2.309488 2.631392e-06     17461.34
        8737    0.9904395     2.309433 0.0001391763     17465.03
        8738    0.9912165     2.309408 0.0001965658      17470.4
        8739    0.9920072     2.309865 0.0002600406     17474.43
        8740    0.9928375     2.310274 0.0003495289     17477.83
        8741    0.9935899     2.310473 0.0003528712     17478.17
        8742    0.9945786     2.310806 0.0003213243     17479.37
        8743    0.9954428     2.311276 0.0003577949     17482.73
        8744    0.9961422     2.311559 0.0003908871     17484.55
        8745    0.9971302     2.311904 0.0004841012     17489.25
        8746    0.9979393      2.31237  0.000542365     17492.52
        8747    0.9982729     2.313213  0.000532587      17493.6
        8748    0.9987874     2.313729 0.0005122188     17494.89
        8749    0.9994948     2.314035 0.0004326842     17497.39
        8750     1.000143     2.314418 0.0003967338     17500.82
        8751     1.000959     2.314943 0.0004493413     17503.91
        8752     1.001624     2.315316 0.0004723824     17506.04
        8753     1.002321     2.315832  0.000425647     17510.18
        8754     1.003677     2.316308 0.0005207382     17514.93
        8755     1.005258     2.316646 0.0004447031     17518.49
        8756     1.006475     2.317399 0.0003476027     17520.71
        8757     1.007412     2.317611  0.000393659     17523.34
        8758     1.008522     2.317698 0.0002877166     17524.55
        8759     1.009915     2.318221 0.0002854918     17528.06
        8760      1.01086      2.31855 0.0003068749     17532.27
        8761     1.011254     2.318753 0.0002344117     17537.37
        8762     1.011031     2.318926 0.0002644117     17542.74
        8763     1.010341     2.319158 0.0001190417     17546.31
        8764     1.010071     2.319607 0.0001014262     17548.46
        8765     1.010161     2.319229 0.0001272891     17551.56
        8766     1.010557     2.319332 3.700417e-05     17555.05
        8767     1.010716     2.319668 0.0001856849      17557.1
        8768     1.010948     2.319755 8.826926e-05     17559.71
        8769     1.011126     2.319972 8.534999e-06     17563.77
        8770     1.011033     2.319685 -9.477898e-05     17566.29
        8771     1.010342     2.319702 -7.605944e-05     17569.86
        8772     1.009297     2.319376 -4.81423e-05      17573.1
        8773     1.008313     2.319667 -0.0002878466     17575.76
        8774     1.007291     2.319492 -0.0003249458     17578.49
        8775     1.006284      2.31855 -0.0006170132     17581.72
        8776     1.005361     2.318076 -0.0007938132     17584.35
        8777     1.004672     2.317199 -0.0009218029     17586.03
        8778     1.004076     2.316317 -0.001159786     17587.71
        8779     1.002997     2.314863 -0.001233789     17589.07
        8780     1.001659     2.313437 -0.001427997     17591.68
        8781     1.000969     2.312264 -0.001490474      17595.7
        8782     1.000798     2.310605 -0.001593721     17599.34
        8783     1.000631     2.308901 -0.001749605     17602.67
        8784     1.000196     2.307062 -0.001992962     17604.56
        8785    0.9988257     2.305266 -0.002167878     17606.14
        8786    0.9973075     2.302633 -0.002375513     17608.53
        8787    0.9963927      2.30023 -0.002482323      17611.4
        8788    0.9958514      2.29756 -0.002576061     17611.93
        8789    0.9954942     2.295336 -0.002634508     17613.56
        8790     0.995667     2.292329 -0.002581211     17617.66
        8791    0.9955294     2.289692 -0.002658956     17621.85
        8792    0.9953284     2.287235 -0.002556573     17625.63
        8793    0.9953907     2.284701  -0.00245064     17629.03
        8794    0.9954336     2.282103 -0.002338834      17631.1
        8795    0.9954029     2.279889 -0.002192904     17634.02
        8796    0.9956488      2.27788 -0.001943988     17636.53
        8797    0.9961176     2.275929 -0.001869728     17638.23
        8798    0.9963268     2.274327 -0.001798373     17639.57
        8799    0.9958961      2.27241 -0.001633247     17641.39
        8800    0.9954051     2.270687 -0.001524389     17643.73
        8801    0.9952642     2.269396 -0.001260723     17646.96
        8802    0.9952281     2.268229 -0.001130584     17649.43
        8803    0.9952921     2.267367 -0.0009632174     17652.29
        8804    0.9953992     2.266164 -0.0008980459      17656.1
        8805    0.9953622     2.265543 -0.0008889037     17658.86
        8806    0.9952303     2.264637 -0.000738316     17661.74
        8807    0.9952349     2.263812 -0.0007283552     17665.03
        8808    0.9952304     2.263211 -0.0006598835     17667.67
        8809    0.9955822      2.26263 -0.0005441488     17671.13
        8810    0.9958645     2.261997 -0.0004921717     17674.12
        8811    0.9953638     2.261635 -0.0005439531     17676.16
        8812    0.9951034     2.261242 -0.0005321107     17678.77
        8813    0.9949945     2.260454 -0.0006020588     17680.18
        8814    0.9947072     2.259869 -0.0006454455     17682.97
        8815    0.9946013     2.259227 -0.0006592002     17687.39
        8816    0.9946604      2.25866 -0.0007170644     17691.08
        8817    0.9946596     2.257817 -0.0007732403     17693.99
        8818     0.995033     2.257001 -0.0009207928     17697.11
        8819    0.9949889     2.256134 -0.0009869911     17699.22
        8820    0.9947728     2.254977 -0.001086146     17699.99
        8821    0.9946144     2.253869 -0.001186801     17701.27
        8822    0.9946542     2.252656 -0.001172333     17701.65
        8823    0.9947259     2.251387 -0.001238492     17700.63
        8824    0.9944868     2.250288 -0.001436527     17700.68
        8825    0.9943239     2.248915 -0.001496882     17700.46
        8826    0.9939355      2.24691 -0.001736842     17697.73
        8827    0.9934244     2.245399   -0.0017426     17693.07
        8828    0.9932867     2.243341 -0.001767983     17683.67
        8829    0.9934752     2.241945 -0.001941937     17665.17
        8830    0.9942537     2.239838 -0.001732005     17619.24
        8831    0.9963321     2.237631  -0.00150329     17477.46
        8832    0.9972739     2.236413 -0.001707457     17217.17
        8833    0.9924476     2.235932 -0.001299349     17209.09
        8834    0.9943593     2.233008 -0.001261318      17333.6
        8835     0.993642     2.232434 -0.001623961     17238.48
        8836    0.9907488     2.231367 -0.001261202     17466.21
        8837    0.9923701     2.229436 -0.001366804     17697.17
        8838    0.9928179     2.227963 -0.001420021     17752.86
        8839    0.9928572     2.226967 -0.001293113     17766.81
        8840    0.9928808     2.225687 -0.001142465     17772.02
        8841    0.9930561     2.224263 -0.001028685     17774.96
        8842      0.99337     2.223393 -0.001137209     17778.41
        8843    0.9934392     2.222852 -0.001049513     17781.29
        8844    0.9938255     2.221138 -0.001106556      17783.8
        8845    0.9943437     2.220065 -0.001285661     17786.24
        8846    0.9947715     2.218967 -0.001094963     17787.85
        8847    0.9952759     2.217709 -0.001115269      17790.3
        8848    0.9960671     2.216759 -0.001012989     17793.88
        8849    0.9968529     2.215604 -0.001003374     17798.48
        8850    0.9973647     2.214915 -0.0009874431     17802.04
        8851    0.9976375     2.213696 -0.0009804632      17804.2
        8852    0.9980726     2.212809 -0.001014892     17806.26
        8853    0.9988002     2.211682 -0.0009376579     17807.41
        8854    0.9995934     2.210856 -0.0009572291     17809.66
        8855     1.000148     2.209945 -0.0009115168     17813.39
        8856     1.000361      2.20898 -0.0008270398     17815.47
        8857      1.00035     2.208036 -0.0007317869     17817.28
        8858     1.000259     2.207548 -0.0005435032     17818.84
        8859     1.000272     2.207018 -0.0004863841     17822.05
        8860     1.000379     2.206806 -0.0004444468     17825.71
        8861     1.000752     2.206091 -0.0003651182     17831.57
        8862     1.001464      2.20577 -0.0002972361     17838.33
        8863     1.001889     2.205558 -0.0001836127     17842.34
        8864     1.001412     2.205617 -0.0002327931     17843.67
        8865     1.001195     2.205356 -0.0002308842     17845.43
        8866     1.001085     2.204839 -0.0002709489     17847.32
        8867     1.000894     2.204634 -0.0001710034     17849.06
        8868     1.000671     2.204533 -6.85225e-05     17851.09
        8869     1.000436     2.204672 2.746162e-05     17853.07
        8870     1.000397     2.204565 -6.561301e-06     17856.49
        8871     1.000593     2.204744 -1.636361e-05     17860.08
        8872     1.000726     2.204507 0.0001141959     17862.78
        8873     1.000831     2.204607  0.000162545     17866.57
        8874     1.000734     2.205021 0.0002582645     17870.56
        8875      1.00052     2.205394 0.0002481182     17873.48
        8876     1.000283      2.20554 0.0001934578     17875.93
        8877     1.000168     2.205599 0.0001463932     17877.83
        8878     1.000101     2.205795 0.0001910807     17879.03
        8879    0.9997372      2.20598 0.0001792081     17881.05
        8880    0.9995771     2.206304 0.0002842826      17885.4
        8881    0.9994766     2.206316 0.0003365744     17889.16
        8882    0.9991616     2.206932 0.0002724065     17891.62
        8883    0.9989331     2.207326 0.0003410815     17893.06
        8884    0.9989634     2.207394 0.0002437535     17894.69
        8885    0.9988625      2.20768 0.0002482023     17897.31
        8886    0.9985837     2.207907 0.0002836491     17901.12
        8887     0.998137     2.208319 0.0002388944     17904.71
        8888    0.9977993     2.208528 0.0001449074     17907.87
        8889    0.9976608     2.208636 4.008202e-05     17911.48
        8890    0.9973656     2.208487 -9.358949e-05     17914.17
        8891    0.9971696     2.208479 -0.0001917341      17916.9
        8892    0.9972462     2.208154 -0.0001859705     17919.09
        8893    0.9969118     2.207869 -0.0003016411     17920.62
        8894    0.9965623     2.207743 -0.0003715226     17923.02
        8895    0.9962729     2.207273 -0.000407352     17926.36
        8896    0.9962423     2.206668 -0.0006272856     17930.09
        8897    0.9965979      2.20624 -0.000747256     17932.52
        8898    0.9967531     2.205234 -0.000909494     17935.38
        8899    0.9963411     2.204284  -0.00113578     17937.98
        8900    0.9960481      2.20303 -0.001236491     17940.47
        8901    0.9957386     2.201697 -0.001347987     17943.32
        8902    0.9955655     2.200288 -0.001401943      17946.4
        8903    0.9955304     2.198892 -0.001458996     17948.94
        8904    0.9954744     2.197422 -0.001684318     17952.03
        8905    0.9954612     2.195861 -0.001740466     17954.08
        8906    0.9952284     2.193551 -0.001759019     17955.62
        8907    0.9947115      2.19193 -0.001812795     17958.25
        8908    0.9941994     2.190386 -0.001663957     17961.13
        8909    0.9940015     2.188609 -0.001726377      17963.9
        8910    0.9936911     2.186895 -0.001710477     17966.85
        8911    0.9933147     2.185024 -0.001699844     17970.49
        8912    0.9931861     2.183544 -0.001699482     17974.35
        8913    0.9935854      2.18181 -0.001669755     17977.03
        8914    0.9937314     2.180097  -0.00160563     17978.35
        8915    0.9938063     2.178345 -0.001557425     17980.75
        8916    0.9939312     2.177122 -0.001523241     17983.86
        8917    0.9938686      2.17558 -0.001373385      17984.6
        8918    0.9939955     2.174004 -0.001411106      17986.9
        8919    0.9942306     2.172852 -0.001338988      17991.2
        8920    0.9944001     2.171477 -0.001180058     17994.26
        8921    0.9945929     2.170224 -0.001171065     17996.64
        8922    0.9949105     2.169284 -0.001157617     17999.33
        8923    0.9952027     2.168167 -0.001124957     18001.98
        8924    0.9955991     2.166847 -0.001129465     18004.64
        8925    0.9960493     2.165725 -0.001038546     18008.04
        8926    0.9964082     2.164766 -0.0009120808     18011.58
        8927     0.996645     2.164013 -0.0008700867     18014.05
        8928    0.9969935     2.163199 -0.0009379623     18014.54
        8929    0.9970941     2.162244 -0.0009560806     18015.96
        8930     0.997547     2.161014 -0.000858951     18019.17
        8931    0.9978561     2.160189 -0.0009478201     18021.59
        8932    0.9984035     2.159763 -0.0008909461     18025.54
        8933    0.9988094     2.158453 -0.0008033634     18028.42
        8934    0.9988311      2.15745 -0.0009018478     18030.55
        8935    0.9987941     2.156975 -0.0008265428     18032.38
        8936    0.9991919     2.156155 -0.0007519951     18028.74
        8937     0.999956     2.155147 -0.0007220855     18003.01
        8938     1.000713     2.154442 -0.0007174745      17952.3
        8939      1.00036     2.154087 -0.0007163039     17934.29
        8940     1.000246     2.153285 -0.0007754092     17957.77
        8941     1.000207     2.152282 -0.0009083074     18010.55
        8942     1.000503     2.151341 -0.0008197665     18033.71
        8943     1.000596     2.150454 -0.0007918309     18042.01
        8944     1.000552     2.150006 -0.0007191854      18047.9
        8945     1.000263     2.149114 -0.0007567866     18053.63
        8946    0.9998937     2.148464 -0.0008474865     18058.08
        8947    0.9995375     2.147427 -0.000851248     18061.07
        8948    0.9993215     2.146616 -0.0008520726      18064.6
        8949    0.9992821     2.145709 -0.0008233851     18067.03
        8950    0.9991975     2.145056 -0.0008243922     18068.78
        8951    0.9990827     2.144133 -0.0008979599     18070.69
        8952    0.9990121     2.143319 -0.0009180892     18073.09
        8953    0.9991573     2.142117 -0.0008912304      18075.3
        8954    0.9994021     2.141383 -0.0008927561     18079.13
        8955    0.9996179     2.140568 -0.000803752     18082.03
        8956    0.9999879     2.139748 -0.0008922797     18083.44
        8957     1.000142     2.138902 -0.0008783271     18084.83
        8958       1.0001     2.137814 -0.0009704184     18086.83
        8959     1.000205     2.137055 -0.0009793393     18089.22
        8960     1.000385     2.135866 -0.0009226394      18090.9
        8961      1.00058     2.134985 -0.0009462606     18093.65
        8962     1.000572     2.134124 -0.0009314797     18096.94
        8963     1.000326      2.13327 -0.0009801391     18099.62
        8964     1.000339      2.13214 -0.0009625081     18102.56
        8965     1.000499     2.131064 -0.0009526542     18105.83
        8966     1.000539     2.130273  -0.00100171     18109.16
        8967     1.000816     2.129459 -0.0009774093      18111.3
        8968     1.001132     2.128133 -0.001044681     18112.52
        8969     1.001583     2.127155 -0.001117572     18114.69
        8970     1.002304     2.126095 -0.0009572364     18116.28
        8971     1.003055     2.124989 -0.0008807877     18119.99
        8972     1.003455     2.124304 -0.0009208368     18124.54
        8973     1.003686     2.123632 -0.0008469081     18127.29
        8974     1.004111     2.122411 -0.0008533546     18130.25
        8975     1.004293     2.121601 -0.000912683     18131.62
        8976       1.0044     2.120891 -0.0007923393     18133.49
        8977     1.004236     2.119981 -0.0007634975     18135.11
        8978     1.003933     2.119242 -0.0008461961     18136.75
        8979     1.003765     2.118547 -0.0007354804     18138.15
        8980     1.003589     2.117506 -0.0007695189     18139.71
        8981      1.00357     2.117039 -0.0007804489     18141.99
        8982     1.003596     2.116164 -0.0007114099     18143.18
        8983     1.003321     2.115426 -0.0007032154     18144.08
        8984     1.002919     2.114661 -0.0006376282     18146.57
        8985     1.002421     2.114226 -0.0006741658     18148.06
        8986     1.002019     2.113613 -0.000635408     18150.66
        8987     1.001636     2.112729 -0.0007157678     18152.85
        8988     1.001454     2.112119 -0.0006217705     18154.98
        8989     1.001329     2.111363 -0.0005166804     18156.62
        8990     1.001219     2.111126 -0.0005086644     18159.31
        8991      1.00115     2.110662 -0.0004577838     18159.95
        8992     1.001057     2.110084 -0.0005988659     18160.59
        8993     1.001294     2.109532 -0.0006103162     18162.81
        8994     1.001921     2.108731 -0.0005889322     18164.47
        8995     1.002392     2.108221 -0.0006310243     18167.34
        8996     1.002385     2.107729 -0.0005610211     18169.99
        8997     1.002466     2.107008 -0.0005465113      18172.4
        8998     1.002513     2.106487 -0.0005670211     18174.88
        8999     1.002084     2.106035 -0.0004495659     18176.14
        9000     1.001799     2.105461 -0.0004822542     18178.03
        9001     1.001385      2.10521 -0.0005353462     18181.06
        9002      1.00089     2.104558 -0.0005004498      18183.3
        9003     1.000689     2.103894 -0.0005453525     18186.11
        9004     1.000679     2.103459 -0.0005292133     18189.15
        9005     1.000924     2.103028 -0.0004719278     18193.21
        9006     1.001125     2.102441 -0.0004933997     18195.26
        9007     1.001304     2.102006 -0.0004373267     18197.21
        9008     1.001569     2.101485 -0.0004108448     18200.45
        9009     1.001761     2.101279 -0.0004471847     18203.17
        9010     1.001639     2.100798 -0.0004213191     18204.34
        9011     1.001651     2.100217 -0.0004970705     18205.67
        9012     1.001745       2.0998 -0.0004895777     18207.07
        9013      1.00205     2.099291 -0.0004365004     18209.08
        9014     1.002113     2.098839 -0.0003628663     18211.55
        9015     1.001846     2.098471 -0.0003980315      18213.7
        9016     1.001118     2.098348 -0.0004132988     18216.43
        9017     1.000637     2.097699 -0.0004634867     18218.83
        9018     1.000096     2.097186 -0.0005243096     18220.27
        9019      0.99962     2.096617 -0.000494999     18223.97
        9020    0.9990936     2.096251 -0.0004924754      18227.3
        9021    0.9987107     2.095719 -0.0005134689     18230.31
        9022    0.9984555     2.095216 -0.0005367841     18232.53
        9023    0.9984998     2.094563 -0.0005419276     18235.24
        9024    0.9987659     2.094104 -0.0006069296     18238.02
        9025    0.9989125     2.093551 -0.0005862169     18239.55
        9026    0.9990193     2.092788 -0.0006239643     18241.47
        9027     0.999245     2.092218 -0.0006639245     18244.19
        9028    0.9994519     2.091608 -0.0006833573     18247.94
        9029    0.9998127     2.090895 -0.0007298874     18250.56
        9030      1.00019     2.090055 -0.0007573985     18253.32
        9031     1.000336     2.089299 -0.0007447261     18255.26
        9032     1.000104     2.088579 -0.0007213094     18256.46
        9033    0.9996537     2.087916 -0.0007328336     18258.03
        9034    0.9991343      2.08717 -0.0007102964     18259.36
        9035    0.9991114     2.086367  -0.00074005     18262.95
        9036    0.9990023     2.085737 -0.0007350262     18265.53
        9037    0.9988769     2.084956 -0.0007030802     18268.75
        9038    0.9985986      2.08423 -0.0007620704     18269.53
        9039    0.9983503     2.083555 -0.0007728126     18269.73
        9040    0.9983685     2.082689 -0.0007716826     18271.04
        9041    0.9985596     2.081865 -0.0008520717     18273.24
        9042    0.9988573     2.081143 -0.0007982084      18275.3
        9043    0.9992279     2.080147 -0.0007475655     18277.38
        9044    0.9993418     2.079496 -0.0008422117     18279.79
        9045    0.9991283     2.078874 -0.000810499     18283.32
        9046    0.9987241     2.077774 -0.0008442994     18286.08
        9047     0.998501     2.076905 -0.0009292386     18288.51
        9048    0.9984167     2.076119 -0.0007987346     18291.11
        9049    0.9982708     2.075158 -0.0008040476     18292.25
        9050    0.9980432     2.074579 -0.0008568706     18292.68
        9051    0.9979389     2.073689 -0.0007934515     18294.69
        9052    0.9979062     2.072692 -0.0009807234     18297.99
        9053    0.9979581     2.071984 -0.0009081558     18301.14
        9054    0.9980498     2.070656 -0.0009536618     18304.13
        9055    0.9978493     2.070056 -0.0009485677      18306.5
        9056    0.9977532     2.068877 -0.0008418213     18308.03
        9057    0.9976768     2.068189 -0.0009570122     18308.07
        9058    0.9974425     2.067289 -0.0008258891     18308.21
        9059    0.9974185     2.066228 -0.0009191566     18310.26
        9060    0.9972027     2.065573 -0.0009681561     18311.73
        9061    0.9974221     2.064513 -0.0008653538     18312.61
        9062     0.997829     2.063416 -0.0008995617     18313.21
        9063    0.9983292     2.062767 -0.0008329994     18314.53
        9064    0.9986734     2.061975 -0.0007555822     18316.55
        9065    0.9986907     2.061181 -0.0008167364     18318.18
        9066    0.9985756     2.060394 -0.0008195632     18320.57
        9067    0.9985716       2.0595 -0.0007647238     18323.18
        9068    0.9984854     2.058697 -0.0007262537     18325.17
        9069    0.9984976     2.058122 -0.0007811925     18327.59
        9070    0.9986916     2.057489 -0.0007975453     18330.58
        9071    0.9988556     2.056375 -0.0008536672     18332.94
        9072    0.9987269     2.055507 -0.000880809     18335.45
        9073    0.9986916     2.054707 -0.0007639811     18337.14
        9074    0.9990357     2.053966 -0.0007403899      18339.1
        9075    0.9995125     2.053319 -0.0007678224      18341.7
        9076    0.9998717     2.052545 -0.000786187     18343.55
        9077     1.000061     2.051636 -0.0007872339     18345.81
        9078    0.9998672     2.050821 -0.0008090729     18347.26
        9079    0.9998761      2.05017 -0.0008364872     18348.98
        9080    0.9999919     2.049309 -0.0008994803     18350.86
        9081    0.9999178      2.04829 -0.0009133339     18350.26
        9082     1.000043     2.047223 -0.0008249955      18349.8
        9083     1.000201     2.046517 -0.0008165728     18350.07
        9084      1.00042     2.046009 -0.0007735723     18346.92
        9085     1.000981     2.045024 -0.0008340692     18332.86
        9086     1.001457     2.044129 -0.0008956166     18306.86
        9087      1.00168      2.04318 -0.0008552092     18288.84
        9088     1.001857     2.042426 -0.0007850965     18281.92
        9089     1.002051     2.041603 -0.0006868229     18274.24
        9090     1.002324     2.040988 -0.0007372508      18248.3
        9091     1.002457     2.040433 -0.000822669     18197.42
        9092     1.002719     2.039477 -0.0006345323     18152.54
        9093     1.003614     2.038312 -0.0007048203     18064.38
        9094     1.001582      2.03845 -0.0008196082     18051.97
        9095     1.001577     2.037614 -0.0007036833      18204.7
        9096     1.003703     2.036199 -0.000838007     18224.14
        9097      1.00465     2.035497 -0.0008119785     18102.82
        9098     1.003513     2.035098 -0.0006964952     18093.76
        9099     1.003314     2.034366 -0.0006963358     18198.49
        9100     1.003685     2.033413 -0.0008360846     18278.23
        9101     1.003448     2.032712 -0.0007954298        18297
        9102     1.003094     2.031754 -0.0007538651     18318.15
        9103     1.002781     2.031184 -0.0008234931     18338.42
        9104     1.002515     2.030397 -0.0008022041     18349.85
        9105     1.002142     2.029418 -0.000777459     18356.53
        9106     1.001616     2.028545 -0.0007761799     18367.01
        9107     1.001296     2.028074 -0.0007694214     18384.15
        9108     1.001239     2.027293 -0.0007271783     18401.22
        9109      1.00127      2.02634 -0.0008802067     18411.22
        9110     1.001391     2.025636 -0.0008930643     18416.46
        9111      1.00186     2.024554 -0.0007468235        18421
        9112     1.002253     2.023721 -0.0008181195     18424.14
        9113      1.00235     2.023353 -0.0007045808     18426.12
        9114     1.002485     2.022364 -0.0006747594        18429
        9115     1.002638     2.021735 -0.0007940091     18433.23
        9116     1.002831     2.021021  -0.00077285     18437.19
        9117     1.002701     2.020177 -0.0007839709     18440.83
        9118     1.002657     2.019273 -0.0008231633      18443.3
        9119     1.002553     2.018599 -0.0008433269     18445.52
        9120     1.002465     2.017729 -0.0007544344     18446.03
        9121     1.002486     2.016804 -0.0007712729     18447.84
        9122     1.002355     2.016255 -0.0007559822     18448.18
        9123     1.002092     2.015514 -0.0006503989     18449.67
        9124     1.001636     2.014705 -0.0007570056     18451.34
        9125     1.001207     2.014202 -0.0007085999     18454.22
        9126     1.000926     2.013227 -0.0006405617     18457.67
        9127     1.000742      2.01268 -0.0006842548     18460.52
        9128     1.000787     2.012143 -0.0006392884      18462.2
        9129     1.000825     2.011465 -0.0006725569     18464.53
        9130     1.000909      2.01067 -0.0006883165     18466.58
        9131     1.000982      2.00999 -0.0006761813     18468.24
        9132     1.001132     2.009389 -0.0006234194     18469.16
        9133     1.001347     2.008761 -0.0006472876      18470.8
        9134     1.001815     2.008176 -0.0006191452     18472.49
        9135       1.0021       2.0074 -0.0005764834     18474.95
        9136     1.002373     2.006913 -0.0005728343     18476.85
        9137     1.002673     2.006455 -0.0005025385     18476.85
        9138     1.003236     2.005885 -0.0005116844     18477.41
        9139     1.003613      2.00539 -0.0005455494        18478
        9140     1.003518     2.004866 -0.0005570826     18479.42
        9141      1.00328     2.004272 -0.0005287631     18481.81
        9142     1.002912     2.003656 -0.0005073545     18484.78
        9143      1.00279     2.003275 -0.0004941879     18487.81
        9144     1.002753     2.002837 -0.000443082     18489.66
        9145     1.002816     2.002296 -0.0005444769     18492.08
        9146     1.003188     2.001884 -0.0005516498     18494.88
        9147     1.003626     2.001097 -0.0004940972      18496.2
        9148     1.004134      2.00063 -0.0005406626     18498.16
        9149      1.00445     2.000319 -0.000516457     18499.35
        9150     1.004551     1.999721 -0.0005254284     18500.29
        9151     1.004389     1.999032 -0.0005640898        18501
        9152     1.004077     1.998528 -0.0005995612     18501.37
        9153     1.003719     1.998063 -0.0005418272      18502.9
        9154     1.003412     1.997323 -0.0005216528      18505.4
        9155     1.003034     1.996864 -0.0005611477     18507.08
        9156     1.002654     1.996442 -0.0005336228     18507.99
        9157     1.002486     1.995818 -0.0005906959     18508.93
        9158     1.002542     1.995189 -0.0006315622     18511.26
        9159     1.002705     1.994501 -0.0006770677     18513.64
        9160     1.002709     1.993915 -0.0006216665     18516.23
        9161      1.00277      1.99311 -0.0005407517        18519
        9162     1.002866     1.992702 -0.000584369     18520.79
        9163     1.002981     1.992338 -0.0004892488     18523.03
        9164     1.003155     1.991578 -0.0005614288     18526.07
        9165     1.003132     1.991153 -0.0006937387     18528.91
        9166     1.003048     1.990456 -0.0006502524     18530.54
        9167     1.002893     1.989563 -0.0006796984     18531.84
        9168     1.002877     1.988977 -0.0006992971     18534.43
        9169     1.002749     1.988434 -0.000674831      18537.2
        9170     1.002293     1.987659 -0.0006892467     18540.42
        9171     1.001705     1.986864 -0.0007344752     18541.62
        9172     1.001267      1.98622 -0.0006944067     18542.41
        9173     1.000917     1.985496 -0.0006738873     18542.11
        9174     1.000756     1.984881 -0.0007163611     18542.56
        9175     1.000771     1.984169 -0.0006944637     18543.71
        9176       1.0009     1.983355 -0.0006693013     18545.09
        9177     1.000873     1.982718 -0.0006896554     18544.32
        9178     1.001124     1.982204 -0.0006207498     18545.43
        9179     1.001264      1.98141 -0.0006778753     18546.01
        9180     1.001292     1.980872 -0.0007094985     18547.14
        9181     1.001294     1.980007 -0.0007169664     18548.74
        9182     1.001129     1.979366 -0.0007324213     18549.71
        9183     1.000876     1.978542 -0.0006700971     18549.73
        9184     1.000533     1.977942 -0.0006411517     18550.37
        9185     1.000214     1.977327 -0.0005966181     18552.33
        9186     1.000218     1.976802 -0.0006021216     18553.79
        9187     1.000327     1.976156 -0.0007012833     18555.89
        9188     1.000167     1.975533 -0.0007293587     18557.18
        9189     1.000286     1.974521 -0.000694741        18559
        9190      1.00008     1.973884 -0.0006763695     18558.45
        9191    0.9998727     1.973377 -0.0005558938     18559.62
        9192    0.9999028     1.972828 -0.000500375      18563.2
        9193    0.9995147     1.972298 -0.0005069037     18565.11
        9194    0.9992536     1.971883 -0.0005619865     18566.14
        9195      0.99932     1.971349 -0.0005776076     18567.32
        9196    0.9993577      1.97058 -0.0006684303     18567.41
        9197    0.9990744     1.969987 -0.0007026803     18567.59
        9198    0.9990065     1.969209 -0.0006621056     18568.58
        9199    0.9990951     1.968538 -0.0007211075     18570.47
        9200    0.9992075     1.967932 -0.0006185499     18573.24
        9201    0.9994782     1.967103 -0.0006587756     18575.37
        9202    0.9997552     1.966735 -0.0007062771      18575.7
        9203     1.000231     1.965903 -0.0006148737        18577
        9204      1.00036     1.965106 -0.0007518043     18578.25
        9205     1.000481     1.964644 -0.0006665178     18578.88
        9206     1.000674     1.963727 -0.0006318761     18580.81
        9207     1.000835     1.963237 -0.0006849676     18582.27
        9208     1.001164     1.962579 -0.0005815936     18583.19
        9209     1.001432     1.961904 -0.0006816137     18585.73
        9210     1.001598     1.961401  -0.00073272      18588.9
        9211     1.001746     1.960511 -0.0007282529     18591.68
        9212     1.001863     1.959648 -0.0007309447     18593.01
        9213     1.002108     1.958991 -0.000687399     18594.22
        9214     1.002273     1.958477 -0.000681023     18595.18
        9215     1.002444     1.957761 -0.0006948905     18596.91
        9216     1.002483     1.956924 -0.000789933     18598.21
        9217     1.002664     1.956211 -0.0007784648     18599.62
        9218     1.003079     1.955318 -0.0007323009     18600.84
        9219     1.003309     1.954647 -0.0007492833     18602.09
        9220     1.003341     1.953995 -0.0006898506     18603.49
        9221     1.003173     1.953214 -0.0006816333     18603.58
        9222      1.00297     1.952558 -0.0007126537     18606.02
        9223     1.002841     1.951921 -0.0006754651     18607.92
        9224     1.002635     1.951144 -0.0006741077        18609
        9225     1.002579     1.950512 -0.0007506288     18610.06
        9226     1.002675     1.949862 -0.0007892771     18612.03
        9227     1.002922     1.948918 -0.0007768819     18614.89
        9228     1.003082     1.947987 -0.0007809303     18616.67
        9229      1.00306     1.947405 -0.0007215706     18618.06
        9230     1.003313     1.946738 -0.0007111707     18619.19
        9231     1.003248     1.946032 -0.0007412934     18618.81
        9232     1.003177     1.945142 -0.0006737876     18619.69
        9233     1.002945     1.944439 -0.0007417652     18620.31
        9234      1.00251     1.944043 -0.0006888668     18619.59
        9235     1.002107     1.943065 -0.0006503231        18620
        9236     1.001874     1.942387 -0.0007354226     18621.68
        9237     1.001555     1.941838 -0.0006979278     18623.16
        9238      1.00161     1.941101 -0.0006597111     18624.09
        9239     1.001781     1.940273 -0.0007405699     18625.22
        9240     1.002038     1.939748 -0.0007494673     18626.97
        9241      1.00225     1.938876 -0.000681081     18629.38
        9242     1.002102     1.938103 -0.0006866255      18629.8
        9243     1.001578     1.937549 -0.0006894969     18629.07
        9244     1.001431     1.937002 -0.0007197515     18628.12
        9245     1.001471     1.936118 -0.000723814     18626.92
        9246     1.001568     1.935224 -0.0007231501     18625.52
        9247     1.001666     1.934654 -0.0007154764     18622.31
        9248     1.001776     1.934109 -0.0007174704     18612.04
        9249     1.002331     1.933256 -0.0006518423     18568.44
        9250     1.003013     1.932354 -0.0006848021     18453.97
        9251     1.001464     1.932046 -0.0006865212     18394.97
        9252      1.00115      1.93137 -0.0007336557     18509.54
        9253     1.002093      1.93051 -0.0006650044     18569.88
        9254     1.002844      1.92942 -0.0005966953     18496.53
        9255     1.002121     1.929386 -0.0006057139     18413.32
        9256     1.001921     1.928983 -0.0005494078     18506.78
        9257      1.00184     1.928087 -0.0007091217      18603.8
        9258     1.001565     1.927222 -0.0007599092     18648.37
        9259     1.001257      1.92655 -0.0007080511     18658.26
        9260     1.000909     1.925943 -0.0006709743     18661.71
        9261     1.000729     1.925255 -0.0006234178     18665.25
        9262     1.000562     1.924538 -0.0006796863     18666.95
        9263     1.000506     1.924056 -0.0007081447     18668.65
        9264     1.000521     1.923225 -0.0006706398     18670.56
        9265     1.000536     1.922422 -0.0007088939     18671.39
        9266     1.000451     1.921856 -0.0007054264     18671.42
        9267     1.000366      1.92122 -0.0006279075     18670.25
        9268     1.000075     1.920403 -0.0006271218      18670.5
        9269    0.9998822     1.919911 -0.0006412989     18672.29
        9270    0.9996726     1.919347 -0.0005754471     18673.65
        9271    0.9995198     1.918655 -0.0006565967     18674.45
        9272    0.9995956     1.918101 -0.0006198185     18676.38
        9273    0.9999141     1.917284 -0.0006309406      18679.4
        9274    0.9999292     1.916868 -0.0006863913     18681.03
        9275     1.000083     1.916131 -0.0006379756     18681.33
        9276     1.000025     1.915356 -0.0007125157      18681.1
        9277     1.000121     1.914732 -0.0006551993     18682.29
        9278     1.000464     1.914018 -0.0005984449     18684.27
        9279     1.000746     1.913511 -0.000608971     18685.31
        9280     1.001191     1.912962 -0.0006036869     18686.93
        9281     1.001473     1.912296 -0.0006175575     18688.42
        9282     1.001515     1.911603 -0.000624338     18689.52
        9283     1.001552      1.91104 -0.0006259006     18689.25
        9284     1.001486     1.910464 -0.0006018085     18690.24
        9285     1.001245     1.909793 -0.0006095065     18692.21
        9286     1.000752     1.909196 -0.000601212     18694.23
        9287     1.000203     1.908602 -0.0006077349     18696.07
        9288    0.9996739      1.90806 -0.0006176857     18696.59
        9289    0.9994625     1.907362 -0.0005778645      18697.7
        9290    0.9994371     1.906725 -0.0005818605     18697.96
        9291    0.9995338     1.906291 -0.0005713802     18698.02
        9292    0.9994894     1.905732  -0.00055946     18698.85
        9293    0.9994501     1.905076 -0.0006502266     18700.42
        9294    0.9995071     1.904487 -0.0006172268     18701.35
        9295    0.9995438      1.90369 -0.0005632278     18703.07
        9296     0.999684     1.903263 -0.0005938288     18704.08
        9297    0.9996137     1.902823 -0.0005365314     18704.72
        9298    0.9995736     1.902112 -0.0005515335     18705.87
        9299    0.9996073     1.901544 -0.0005484599     18708.32
        9300    0.9997441     1.901057 -0.0005576659     18710.53
        9301    0.9995907      1.90063 -0.0004964032     18711.48
        9302    0.9994863     1.899881 -0.0005780152     18712.62
        9303     0.999565     1.899558 -0.0006242019     18712.99
        9304    0.9997037     1.898745 -0.0005527717     18712.29
        9305     0.999886     1.898133 -0.0005852649     18712.93
        9306      1.00005      1.89767 -0.0004996886     18713.03
        9307     1.000285     1.897217 -0.0004889082     18713.89
        9308     1.000608     1.896746 -0.0005567408     18715.05
        9309     1.000788     1.896177 -0.0005819147      18715.6
        9310     1.000721     1.895443 -0.000559338     18716.56
        9311     1.000691      1.89489 -0.0006450108      18717.1
        9312     1.000605     1.894509 -0.0005752491     18717.05
        9313     1.000683     1.893597 -0.0005664641     18718.33
        9314     1.000845     1.893142 -0.0006136626     18720.03
        9315     1.000793     1.892624 -0.0005182597      18720.9
        9316     1.000497     1.892054 -0.0005922449     18721.83
        9317     1.000258     1.891524 -0.0006002641     18723.62
        9318      1.00025     1.890773 -0.0005858894     18727.02
        9319     1.000271     1.890223 -0.0005957596     18729.13
        9320     1.000363     1.889711 -0.000585851     18728.06
        9321     1.000344     1.889141 -0.0006022679     18726.65
        9322      1.00019      1.88843 -0.0006220602     18725.78
        9323     1.000159     1.887814 -0.0005834155     18726.39
        9324      1.00023     1.887222 -0.000580299     18727.47
        9325     1.000359     1.886807 -0.0005805887      18728.6
        9326     1.000424     1.886109 -0.000576982     18730.21
        9327     1.000587     1.885491 -0.000661003     18732.02
        9328     1.000813     1.884914 -0.0005660793     18733.32
        9329     1.001009     1.884163 -0.0006036961     18734.41
        9330      1.00122     1.883844 -0.0005605501     18736.48
        9331     1.001491     1.883076 -0.0004802728     18736.77
        9332     1.001817     1.882672 -0.0006276955     18736.54
        9333     1.002054     1.882242 -0.0006292081     18736.15
        9334     1.001893     1.881334 -0.0006221582     18736.85
        9335     1.001685      1.88056 -0.0006609153     18739.56
        9336     1.001279     1.880184 -0.0005964232     18742.18
        9337     1.000873     1.879599 -0.0005722647     18744.26
        9338     1.000769     1.878948 -0.0006267036     18745.95
        9339     1.000882     1.878271 -0.0006113749     18745.18
        9340     1.001058     1.877677 -0.0006313231     18744.31
        9341     1.001374     1.877153 -0.0006085365     18743.28
        9342     1.001835     1.876423 -0.0006115975      18743.2
        9343     1.002387     1.875836 -0.000615013     18744.94
        9344     1.002543      1.87523 -0.0005843999     18745.84
        9345     1.002713     1.874693 -0.0005202185     18746.37
        9346     1.002861     1.874085 -0.0006236544     18746.94
        9347     1.002716     1.873756 -0.0006187284     18747.57
        9348       1.0029     1.872736 -0.0005777742     18749.05
        9349     1.003153     1.872218 -0.0007029851     18747.76
        9350     1.003372     1.871774 -0.0005852295     18744.06
        9351     1.003292     1.870944 -0.0006038967     18741.39
        9352     1.002785     1.870395 -0.0006381754     18743.46
        9353     1.002195     1.869803 -0.0005627955     18746.46
        9354     1.001743     1.869221 -0.0005817047     18747.66
        9355     1.001415     1.868692 -0.0006405894     18749.61
        9356     1.001231     1.868068 -0.0006626788     18753.12
        9357     1.001332      1.86724 -0.0006912736     18757.33
        9358     1.001468     1.866571 -0.0006547333     18759.12
        9359     1.001386     1.865927 -0.0005980224     18758.79
        9360     1.001223     1.865449 -0.0006112733     18757.32
        9361     1.001074     1.864848 -0.0005575093     18754.93
        9362     1.000936     1.864125 -0.0006134613     18751.89
        9363     1.001019     1.863697 -0.0006537752     18753.02
        9364     1.001283     1.862995 -0.0006157319     18755.17
        9365     1.001856     1.862233 -0.000634926     18755.65
        9366     1.002384     1.861663 -0.0006230466      18756.8
        9367     1.002157     1.861158 -0.0005798598     18759.89
        9368     1.001838     1.860503 -0.0005394527     18764.75
        9369     1.001763     1.859914 -0.0005931097     18766.89
        9370     1.001754     1.859505 -0.0005382307     18767.51
        9371     1.001743     1.858785 -0.0005323957     18769.03
        9372     1.001799      1.85835 -0.0006812372     18770.65
        9373     1.002052     1.857784 -0.0006381984     18771.48
        9374     1.002029      1.85678 -0.0006543825     18769.48
        9375     1.002217     1.856232 -0.000628363     18768.99
        9376     1.002057     1.855733 -0.0005385352     18768.72
        9377     1.002038     1.855271 -0.0005878046     18769.89
        9378     1.002096     1.854626 -0.0005914847     18771.81
        9379     1.002112     1.853881 -0.0006368554      18773.3
        9380     1.002036     1.853367 -0.0005611593     18774.43
        9381     1.001904     1.852723 -0.0005951377     18774.53
        9382     1.001681     1.852381 -0.0005589086     18775.06
        9383     1.001468     1.851501 -0.0005846527     18775.96
        9384     1.001289     1.851131 -0.0007116346     18777.38
        9385     1.001302     1.850384 -0.0006032487     18779.17
        9386     1.001408     1.849534 -0.0006537452     18780.04
        9387     1.001339     1.849088 -0.000591095     18779.93
        9388     1.001382     1.848516 -0.0005305483     18780.89
        9389     1.001507      1.84802 -0.0006523897     18780.64
        9390     1.001581     1.847412 -0.0006119983     18780.24
        9391     1.001623     1.846478 -0.0006492025     18779.77
        9392      1.00128     1.846068 -0.0006203635     18777.93
        9393     1.001025     1.845423  -0.00053934     18777.37
        9394     1.000875     1.844931 -0.0006216117     18777.48
        9395      1.00063     1.844321 -0.0005859913     18779.33
        9396     1.000036     1.843582 -0.0006354014        18780
        9397    0.9996388     1.843079 -0.0006591391     18779.74
        9398    0.9996069     1.842389 -0.0006299657     18781.23
        9399    0.9999273     1.841684 -0.0005863965     18783.72
        9400    0.9999942     1.841062 -0.0005737923     18783.57
        9401     1.000068     1.840734 -0.0005316708     18782.68
        9402     1.000311     1.840094 -0.0005943962      18782.9
        9403     1.000363     1.839557 -0.0006609146      18783.9
        9404     1.000351     1.838684 -0.0006664776     18785.05
        9405     1.000516      1.83809 -0.0007090341     18786.31
        9406     1.000774     1.837428 -0.0005789926     18788.59
        9407     1.001123     1.836721 -0.0005623971     18788.46
        9408     1.001396     1.836368 -0.0005420507     18787.33
        9409     1.001447      1.83584 -0.0005264437     18787.09
        9410      1.00129      1.83526 -0.0006002183     18789.14
        9411     1.000907     1.834616 -0.0006409969     18789.78
        9412     1.000853     1.833967 -0.0006702554     18790.09
        9413     1.000959     1.833277 -0.0006806723     18791.52
        9414     1.000874     1.832579 -0.000619077      18792.5
        9415     1.000667     1.831893 -0.0006078927     18792.43
        9416     1.000581     1.831491 -0.0005626286     18793.11
        9417     1.000291     1.830845 -0.0005699186     18792.25
        9418     1.000124     1.830328 -0.0006541882     18790.46
        9419    0.9999534     1.829613 -0.0006204935     18789.76
        9420    0.9998538     1.828874 -0.0006238868     18789.61
        9421    0.9997635     1.828363 -0.0006527414     18789.05
        9422    0.9995404     1.827833 -0.0005753533     18788.22
        9423    0.9992869     1.827002 -0.0006359947     18787.73
        9424    0.9991738     1.826573 -0.0006767578     18787.79
        9425    0.9990391     1.825819 -0.0006256918     18787.73
        9426    0.9991509     1.825126 -0.0006578116     18787.33
        9427    0.9990657     1.824499 -0.0006274817      18788.3
        9428    0.9986706     1.823942 -0.0005976959     18788.26
        9429    0.9983157     1.823309 -0.0006288084     18786.38
        9430    0.9983241     1.822735 -0.0006431782     18786.66
        9431    0.9981425     1.821984 -0.0006053148     18787.51
        9432    0.9978934     1.821369 -0.0006448301     18788.31
        9433    0.9975392     1.820888 -0.0006145473     18788.88
        9434    0.9975397     1.820156 -0.0005655093     18789.29
        9435    0.9975379     1.819526 -0.0005930886     18789.28
        9436    0.9973758     1.819107 -0.0005553593     18788.56
        9437    0.9974085     1.818515 -0.0005299828     18788.65
        9438     0.997845     1.817934 -0.0006591771     18789.05
        9439    0.9981093     1.817406 -0.0006388116      18788.7
        9440    0.9983539      1.81647 -0.0006308874     18788.12
        9441    0.9983875      1.81596 -0.0006095017     18788.62
        9442    0.9983769     1.815411 -0.0004959036     18788.83
        9443     0.998238     1.814968 -0.0005738182     18787.51
        9444    0.9982222     1.814487 -0.000557629     18787.17
        9445     0.998441     1.813665 -0.000658556     18786.93
        9446    0.9985263      1.81318 -0.0006457409     18787.48
        9447    0.9986001     1.812334 -0.0005745306     18787.98
        9448    0.9987548     1.811904 -0.0006307899     18788.33
        9449    0.9990759     1.811367 -0.0005492605     18788.85
        9450    0.9993076     1.810657 -0.000579371     18787.67
        9451    0.9990986     1.810137 -0.0006631974     18786.54
        9452    0.9989804     1.809586 -0.0005968483     18786.67
        9453     0.998885     1.808714 -0.0006347781     18785.75
        9454    0.9988827      1.80827 -0.0006013474     18785.37
        9455    0.9990196     1.807598 -0.0005307121     18786.11
        9456    0.9991576     1.807181 -0.0005988406     18785.56
        9457    0.9993736     1.806591 -0.0005636321     18784.34
        9458    0.9992388     1.805874 -0.0005469934     18782.96
        9459    0.9991015     1.805343 -0.0005711886     18782.27
        9460    0.9989789     1.804993 -0.0005436821     18783.41
        9461    0.9989866     1.804306 -0.000541324     18784.84
        9462     0.998807       1.8037 -0.0006230922     18786.35
        9463    0.9983925     1.803178 -0.0005648777     18787.05
        9464     0.998004       1.8025 -0.0005349749     18787.91
        9465     0.997345     1.802047 -0.0005550191     18788.06
        9466    0.9969255      1.80156 -0.0005473704     18789.73
        9467    0.9965024     1.800958 -0.0005637374     18789.15
        9468    0.9964019     1.800311 -0.0005933298     18790.12
        9469    0.9962363     1.799792 -0.0006102849     18789.42
        9470     0.996209     1.799186 -0.0005249559     18788.72
        9471    0.9961697     1.798517 -0.0005352021     18787.75
        9472    0.9964431     1.798211 -0.000515977      18787.1
        9473    0.9964163     1.797651 -0.0005328868     18786.71
        9474    0.9961067     1.797122 -0.0005673452     18785.54
        9475    0.9957531     1.796385 -0.0005563329     18783.89
        9476    0.9954499     1.795942 -0.0006438131     18782.29
        9477     0.995264     1.795426 -0.0005320099     18782.73
        9478    0.9953193     1.794547 -0.0005607683     18782.35
        9479    0.9954937     1.794257 -0.0005808206     18782.02
        9480    0.9959099     1.793699 -0.0004799091     18782.14
        9481    0.9959467     1.793103 -0.000566404     18781.78
        9482    0.9958726     1.792628 -0.0005500722     18780.61
        9483    0.9956349     1.791991 -0.0005183242     18777.09
        9484    0.9953614     1.791498 -0.0005718347     18767.46
        9485     0.995495     1.791029 -0.0005462187     18748.68
        9486    0.9956463      1.79034 -0.000604451      18740.1
        9487    0.9959583     1.789807 -0.0005836427     18746.67
        9488    0.9959606     1.789081 -0.0005491468     18755.61
        9489    0.9958299     1.788695 -0.0005838442     18764.64
        9490     0.995597     1.788144 -0.0005421894     18766.01
        9491    0.9955324     1.787471 -0.0005672836     18755.95
        9492    0.9955096     1.786912 -0.0005466137     18738.74
        9493    0.9955937     1.786426 -0.000510203     18737.63
        9494    0.9956223     1.785957 -0.0005232078     18745.16
        9495    0.9954398      1.78543 -0.0005856537     18755.78
        9496    0.9955591     1.784819 -0.0006466032     18764.17
        9497    0.9954441     1.784083 -0.0006028326     18765.72
        9498    0.9949794     1.783371 -0.0005385817     18765.16
        9499    0.9947927     1.783019 -0.0004011998     18764.89
        9500    0.9947927     1.783019 -0.0004011998     18764.89
