# This file has been produced by extranormal (v 1.0.1 - February 23, 2017)
# O. Roudenko - Synchrotron SOLEIL. Covered by GPL licence.
#Data from HDF File: /nfs/ruche-rock/rock-soleil/com-rock/2022/Projets/20220725_Gilles/op2_cell3_cell4/op2_cell4_pos1_dq1/op2_cell4_pos1_dq1_0022/op2_cell4_pos1_dq1_0022_02306.nxs to op2_cell4_pos1_dq1_0022_02329.nxs
#Time at start=2022-07-27 03:02:26.237
#Time from start (seconds)=64.8656389022
#Sample temperature (C)=nan
# Normalization -------------
# pivot spectrum: LNO_pristine_av1100_00001.txt
# E0=8332.88   Eshift=-0.199985299626
# E0_pivot = 8349.6
# pre-edge params: from E0_pivot-240.0 to E0_pivot-50.0
# pre-edge range: [8109.6, 8299.6]
# post-edge params: from E0_pivot+70.0 to E0_pivot+1155.0
# post-edge range: [8419.6, 9500.0]
# I jump at E0_pivot = 0.79898038897
# shifted energy	normalized	reference	ref.derivative	I0
        8060  0.001415035     1.037874 -0.0005033085     14941.05
        8065 0.0009182999     1.035362 -0.0004804388     14960.29
        8070 0.0006581037     1.033073 -0.000465025     14985.06
        8075  4.16478e-05     1.030785 -0.0004456263     15008.49
        8080  0.001099091     1.028573 -0.0004497654     15030.97
        8085  0.000756267      1.02645 -0.0004482094     15049.23
        8090 0.0004485935     1.024077 -0.0004437637     15072.64
        8095  0.000768953     1.021821 -0.0004506582     15096.27
        8100 0.0004056735     1.019698 -0.000437829     15118.47
        8105  -0.00010748     1.017436 -0.0004340397      15140.5
        8110 -0.0002398574     1.015321 -0.0004352017     15160.35
        8115 0.0003507807      1.01314 -0.0004328041     15179.03
        8120 3.512511e-05     1.010994 -0.0004273755     15199.38
        8125 -0.0003175195      1.00878 -0.0004227597     15221.03
        8130   -0.0006684     1.006773 -0.0004124532     15242.84
        8135  0.000727665     1.004685 -0.0004041613     15264.69
        8140  0.001991903     1.002745 -0.0004069905     15283.06
        8145 0.0009884209     1.000697 -0.0004082777     15305.99
        8150 0.0005356672    0.9986335 -0.0004175975     15322.32
        8155 0.0001601456     0.996519 -0.0004188995      15346.1
        8160 0.0002034648    0.9943931 -0.0004218177     15364.32
        8165  0.001178739    0.9923191 -0.0004264333     15392.62
        8170 0.0002109933    0.9901971 -0.0004323888     15410.74
        8175 0.0001880798    0.9879904 -0.0004224488     15433.51
        8180 0.0006905158    0.9857454 -0.0004271843     15453.03
        8185 -0.0007284463    0.9838701 -0.0004150995      15472.7
        8190  -0.00124862    0.9816534 -0.0004082456     15495.71
        8195 -0.0008551311    0.9796884  -0.00040719     15517.19
        8200 -0.0005815116    0.9775804 -0.0004171911     15534.34
        8205 -0.001160592    0.9757263 -0.0004159108     15557.57
        8210 -0.001578304    0.9733096 -0.0004108438     15574.54
        8215 -0.001399592    0.9713702 -0.0004192248     15595.34
        8220 -0.001496693    0.9693636 -0.0004043725     15618.34
        8225 -0.0007225203    0.9673418 -0.0003955495     15639.78
        8230 0.0004193868    0.9652222 -0.0003999571     15660.67
        8235 -0.0007069279    0.9634592 -0.0003954502     15677.64
        8240 -0.0004100705    0.9613644 -0.0003758217     15700.46
        8245 0.0002169438    0.9594328 -0.0003863153     15721.82
        8250 0.0002651716    0.9577057 -0.0003813927      15739.6
        8255 -0.0008194754    0.9557329 -0.0003666123     15757.95
        8260 -5.772116e-05    0.9537366 -0.0003618322     15777.98
        8265 0.0003250516    0.9521005 -0.0003499654      15797.9
        8270  0.001781996    0.9504691 -0.0003403561      15819.5
        8275 0.0003955379    0.9487336 -0.0003321499     15835.96
        8280 0.0004941407    0.9469294 -0.0003314517     15854.75
        8285 0.0001345931    0.9454575 -0.0003210422     15867.03
        8290 0.0005870218    0.9438401 -0.0002913153     15879.39
        8295  0.001316896    0.9423127 -0.0002731499     15890.35
        8300  0.004898401    0.9413551 -0.0002021481     15818.46
      8300.2  0.004870911    0.9413133 0.0001480743     15808.33
      8300.4  0.004855508    0.9412293 -7.824586e-05     15798.88
      8300.6  0.004801498    0.9412659 2.764222e-05     15790.81
      8300.8   0.00473965    0.9412925 0.0001168309     15785.42
        8301  0.004594451    0.9413355 -3.628874e-05     15781.27
      8301.2  0.004445305    0.9413227 -0.0001520915     15778.28
      8301.4  0.004396491    0.9412369 -0.0002762909     15776.73
      8301.6  0.004397531    0.9411708 -0.0004007284     15775.88
      8301.8  0.004329693    0.9411144 -0.0004314977     15775.33
        8302   0.00428494    0.9410021 -0.0005611155     15774.95
      8302.2   0.00426891    0.9408917 -0.0006172209     15774.29
      8302.4  0.004383127    0.9407219 -0.000630999     15773.71
      8302.6  0.004512521    0.9406206 -0.0005453438     15772.98
      8302.8  0.004439724    0.9404973 -0.0004605437     15769.73
        8303  0.004521272    0.9404554 -0.0001427109     15766.57
      8303.2  0.004530357    0.9403535 1.362601e-05     15761.31
      8303.4  0.004523617    0.9405065 0.0001421031      15755.3
      8303.6  0.004572256    0.9405082 9.669084e-05     15747.16
      8303.8  0.004709955    0.9405691 5.480308e-05     15736.94
        8304  0.004870338    0.9404309 -8.26274e-05     15723.78
      8304.2  0.005184908    0.9405503 -0.0002670739     15707.64
      8304.4  0.005530051    0.9404421 -0.000430338     15685.61
      8304.6  0.005898587    0.9403555 -0.0007659128     15656.61
      8304.8  0.006532894    0.9400866 -0.0009183138     15619.49
        8305  0.007098426    0.9399376 -0.0009741709     15569.25
      8305.2  0.007845195    0.9397075 -0.0005333949     15508.58
      8305.4  0.008410196    0.9395761 -0.0003047543        15436
      8305.6  0.008732217    0.9396599 0.0001358801     15356.55
      8305.8  0.008771794    0.9396938 0.0004321782      15279.2
        8306  0.008475584    0.9398162 0.0006192113     15208.62
      8306.2  0.007914244    0.9399219 0.0008135482     15153.29
      8306.4  0.007136599    0.9401552 0.0008862822     15115.21
      8306.6  0.006206255    0.9403446 0.0006854148     15098.25
      8306.8  0.005324783    0.9405252 0.0004658161     15103.43
        8307  0.004687872    0.9404702 0.0002403666     15128.39
      8307.2   0.00415479    0.9405279 0.0002016778     15165.61
      8307.4  0.003754313    0.9405369 0.0002740197     15210.33
      8307.6  0.003515703    0.9406866 0.0004117274     15263.05
      8307.8  0.003205268    0.9406894 0.0005692759     15320.16
        8308   0.00296585    0.9408573 0.0005306278     15379.61
      8308.2  0.002642074    0.9409923 0.0005185509     15439.54
      8308.4  0.002422205    0.9411111 0.0001466398     15502.56
      8308.6  0.002444408    0.9411043 -0.0001919126     15567.73
      8308.8  0.002527765    0.9409746 -0.0004328823     15630.04
        8309  0.002863705    0.9408388 -0.0006964806     15688.39
      8309.2   0.00325677    0.9407648 -0.0006989248     15736.24
      8309.4  0.003831332    0.9405471 -0.0006297551     15773.06
      8309.6  0.004425744    0.9404154 -0.0006847085     15796.78
      8309.8  0.004969571     0.940335 -0.0005117752     15806.06
        8310  0.005411648     0.940217 -0.0001611133     15805.74
      8310.2  0.005534546    0.9401377 3.951025e-05     15798.76
      8310.4  0.005476503    0.9402865 0.0003224667     15791.05
      8310.6  0.005499544    0.9403666 0.0003079636     15786.61
      8310.8   0.00539027     0.940475 -0.0001107317     15784.64
        8311  0.005217122     0.940384 -0.0003428079     15786.85
      8311.2  0.005168582     0.940198 -0.0007186224     15794.11
      8311.4  0.005456142    0.9400924 -0.000528464      15801.5
      8311.6  0.005894983    0.9399001 -0.0002327592     15802.92
      8311.8  0.006094335    0.9399613 -0.0001040595     15794.45
        8312  0.006142588    0.9400118 0.0002166139     15781.11
      8312.2  0.006173497    0.9400091 0.0004590572     15766.79
      8312.4   0.00616995    0.9400734 0.0005059216     15752.78
      8312.6   0.00595526    0.9403285 0.0005034377     15740.95
      8312.8  0.005866281    0.9404165 0.0002946278     15732.63
        8313  0.006014708    0.9404119 -0.0001242442     15726.15
      8313.2  0.006474714    0.9403091 -0.0005390945     15714.03
      8313.4  0.007187034    0.9402291 -0.0008901992     15689.14
      8313.6  0.007958431    0.9399852 -0.001160093      15649.6
      8313.8  0.008851265    0.9396997 -0.001070507     15591.28
        8314   0.00979069     0.939381 -0.0006156959     15516.54
      8314.2   0.01038553    0.9393727 0.0002418495     15432.98
      8314.4   0.01062005    0.9394927 0.0008945895      15347.2
      8314.6   0.01044661    0.9398932  0.001374977     15272.81
      8314.8  0.009980219    0.9400967  0.001637393     15214.18
        8315  0.009303765    0.9404727  0.001525683      15174.4
      8315.2  0.008683764    0.9408026  0.001468767     15161.71
      8315.4  0.008141811    0.9411137  0.001219431     15171.17
      8315.6  0.007904241    0.9412717  0.000960494     15197.32
      8315.8  0.007778591    0.9414482  0.000681808     15235.78
        8316  0.007722369     0.941571  0.000626704     15277.87
      8316.2  0.007723084    0.9416592 0.0006521981     15321.05
      8316.4  0.007742701     0.941773 0.0006430382     15364.21
      8316.6  0.007677379      0.94197 0.0006671857     15406.19
      8316.8   0.00765872    0.9420854 0.0004949627      15449.8
        8317  0.007469597    0.9421929 0.0003567352     15493.31
      8317.2  0.007514855     0.942169 0.0002852553     15537.86
      8317.4  0.007401403    0.9422554 0.0001805452     15581.28
      8317.6  0.007414228    0.9423136 0.0002836049     15624.92
      8317.8  0.007373698    0.9423374 0.0001549095     15666.94
        8318  0.007469891    0.9423959 0.0001385137     15706.63
      8318.2  0.007720893    0.9423793 0.0001341378     15741.94
      8318.4  0.007967801    0.9424244 4.213176e-05     15772.65
      8318.6   0.00808454    0.9424447 0.0002420603     15796.79
      8318.8  0.008320988    0.9424296 0.0002779474     15818.53
        8319  0.008451705    0.9425729 0.0002583889     15836.86
      8319.2  0.008592227    0.9426468 0.0006381596     15851.87
      8319.4  0.008752397    0.9426514 0.0007694529     15864.08
      8319.6  0.008868829    0.9429401 0.0007939107     15874.82
      8319.8  0.008932019    0.9431885 0.0008666947     15884.14
        8320  0.009002602    0.9432819 0.0006990873     15892.61
      8320.2  0.009145409    0.9433447 0.0005667472     15900.48
      8320.4  0.009202756    0.9434994 0.0008808894     15907.03
      8320.6  0.009250974    0.9436419  0.001123832     15913.09
      8320.8  0.009294022    0.9439866 0.0009476505     15918.73
        8321  0.009233508    0.9442438  0.001157797     15923.57
      8321.2  0.009325357    0.9442575  0.000837861     15928.94
      8321.4  0.009288112    0.9445681 0.0009530915     15933.54
      8321.6  0.009329052    0.9446569  0.001292575      15938.5
      8321.8  0.009251041    0.9450063  0.001315723      15942.9
        8322    0.0092377    0.9452916  0.001702772     15947.92
      8322.2    0.0093798    0.9456207  0.001501702     15953.65
      8322.4  0.009439025    0.9460191  0.001671588     15959.06
      8322.6  0.009503775    0.9462076   0.00164124     15964.55
      8322.8  0.009546186    0.9466288  0.001519471     15971.37
        8323  0.009642273    0.9469337  0.001607081     15978.76
      8323.2  0.009839472    0.9472347  0.001558041     15986.99
      8323.4  0.009899577    0.9474933  0.001559925     15994.74
      8323.6   0.01000145    0.9478753  0.001537839     16002.26
      8323.8   0.01014759    0.9481817  0.001832978     16009.54
        8324   0.01021238     0.948465  0.001924393     16016.57
      8324.2   0.01048193    0.9489597  0.001991233     16023.12
      8324.4    0.0105991    0.9494148  0.002239469     16028.03
      8324.6   0.01072593    0.9497746  0.002096061     16032.45
      8324.8    0.0109164    0.9502565  0.002033367        16036
        8325   0.01103529    0.9506365  0.002442232     16038.28
      8325.2   0.01130647    0.9510415  0.002593826     16040.88
      8325.4   0.01140972    0.9517284  0.002890328        16042
      8325.6   0.01158531    0.9523316   0.00326951     16043.61
      8325.8   0.01167896    0.9529488  0.003300648     16044.95
        8326   0.01186696    0.9536571  0.003787264     16047.03
      8326.2   0.01189705    0.9543689  0.004190958     16047.55
      8326.4   0.01199728    0.9553614  0.004337202     16048.54
      8326.6   0.01222248    0.9563016  0.004670238     16049.88
      8326.8   0.01246535    0.9571268  0.004721884     16051.06
        8327   0.01267344    0.9581051  0.004932647     16052.09
      8327.2   0.01295778    0.9591389  0.005396153     16053.46
      8327.4   0.01308647    0.9602477  0.005617571     16053.87
      8327.6   0.01338965    0.9614438   0.00582481     16055.08
      8327.8   0.01363397    0.9625992  0.006094093     16056.07
        8328   0.01395857    0.9637988  0.006514469     16057.19
      8328.2   0.01425119     0.965123  0.007173264     16058.37
      8328.4   0.01445123    0.9666553  0.007902959     16059.28
      8328.6     0.014677    0.9683378  0.008825545     16060.26
      8328.8   0.01491256    0.9701211  0.009845075     16061.11
        8329   0.01519142    0.9721834   0.01081602     16062.22
      8329.2   0.01545807    0.9745314   0.01195447     16063.45
      8329.4   0.01562213    0.9769906   0.01322123     16063.72
      8329.6   0.01603484    0.9796847   0.01465213     16065.02
      8329.8   0.01636595    0.9827604   0.01683255     16066.08
        8330   0.01672109    0.9862531    0.0199111     16067.24
      8330.2   0.01715052    0.9904567   0.02342844     16067.96
      8330.4   0.01757595    0.9956136   0.02762944     16068.55
      8330.6   0.01811382     1.001503   0.03285034      16069.4
      8330.8   0.01858697     1.008357   0.03922767     16069.46
        8331   0.01915844     1.016737   0.04731229     16070.81
      8331.2   0.01984939     1.026996   0.05767886     16071.21
      8331.4   0.02076192     1.039353   0.06935554     16072.16
      8331.6   0.02173162       1.0545   0.08202283     16072.58
      8331.8   0.02292704     1.072221   0.09554873     16073.17
        8332   0.02426599     1.092614    0.1089671     16073.43
      8332.2   0.02584561     1.115792    0.1211907      16073.8
      8332.4    0.0276628     1.141673     0.131866     16073.99
      8332.6   0.02986228     1.169174    0.1399304     16074.05
      8332.8   0.03217405     1.198107     0.145169     16074.01
        8333   0.03471555     1.227736    0.1482661     16073.95
      8333.2   0.03746386     1.257809     0.148281     16073.97
      8333.4   0.04017239     1.287787     0.145956     16073.51
      8333.6    0.0427714     1.316732    0.1423017     16073.69
      8333.8   0.04498263     1.344501    0.1376507     16073.07
        8334   0.04700772      1.37165    0.1325076     16072.78
      8334.2   0.04871367     1.397907    0.1260796     16072.36
      8334.4   0.04991266     1.422738    0.1185742     16072.28
      8334.6   0.05068942     1.445365    0.1094798     16072.58
      8334.8   0.05105646     1.466509    0.1005708     16072.82
        8335   0.05102728     1.485491   0.09249958     16072.81
      8335.2   0.05080348     1.503194   0.08416867     16072.83
      8335.4   0.05047087     1.519364   0.07614623     16073.12
      8335.6   0.05009335     1.533844   0.06802425     16072.73
      8335.8   0.05005434     1.546408   0.06086909     16073.56
        8336   0.05011119     1.557614   0.05507109     16074.14
      8336.2   0.05036549      1.56806   0.05068106     16075.41
      8336.4   0.05087319     1.577901   0.04716238        16076
      8336.6    0.0515913     1.586953   0.04422278     16077.14
      8336.8   0.05259001     1.595344   0.04167154     16078.66
        8337   0.05372651     1.603438   0.04042572     16079.37
      8337.2   0.05493274     1.611238    0.0407365     16080.09
      8337.4   0.05636587     1.619294   0.04237232      16080.9
      8337.6   0.05794903     1.627933   0.04507028     16081.97
      8337.8   0.05970633     1.637336   0.04838517     16083.13
        8338   0.06168984     1.647295   0.05215849     16084.26
      8338.2   0.06389602     1.658002   0.05550152     16086.19
      8338.4    0.0661524      1.66966   0.05873031      16087.4
      8338.6   0.06879757     1.681737   0.06125519     16088.41
      8338.8   0.07155466     1.694279   0.06291997     16088.84
        8339   0.07476068     1.707006   0.06427363     16089.99
      8339.2   0.07830922     1.719996   0.06522647     16091.34
      8339.4   0.08217641     1.733156    0.0645187     16091.82
      8339.6    0.0865338      1.74646   0.06288391     16092.76
      8339.8   0.09144466     1.758621   0.06068159     16092.85
        8340   0.09692235     1.770303   0.05829134     16093.14
      8340.2    0.1030729     1.781701    0.0574214     16093.94
      8340.4    0.1103694     1.793093   0.05683732     16094.51
      8340.6    0.1189506     1.804558   0.05622769     16095.24
      8340.8    0.1285825     1.815773   0.05596011     16096.03
        8341    0.1391884     1.826683   0.05633703     16096.51
      8341.2    0.1513937     1.837861   0.05819818      16097.1
      8341.4    0.1652691     1.849628   0.06174535     16096.96
      8341.6    0.1808414     1.862331    0.0656549     16097.15
      8341.8    0.1982575      1.87608   0.06986908     16098.48
        8342    0.2161742     1.890385   0.07401987     16098.94
      8342.2    0.2345953     1.905523   0.07893028     16099.51
      8342.4    0.2533446     1.921547    0.0843571     16099.58
      8342.6     0.273201     1.939224   0.09011614     16100.89
      8342.8     0.292876     1.957871    0.0958636     16101.72
        8343     0.312506     1.977616    0.1002844     16102.98
      8343.2    0.3313097     1.998238     0.104904     16103.53
      8343.4    0.3496877     2.019451    0.1089851     16104.09
      8343.6     0.367646     2.041794    0.1125565     16103.73
      8343.8    0.3853518     2.064804    0.1162741     16104.43
        8344    0.4027225     2.088283    0.1191422      16104.2
      8344.2     0.419934     2.112471     0.121573     16104.39
      8344.4    0.4370838     2.137108    0.1239663     16104.65
      8344.6    0.4546465     2.162062    0.1259988     16105.66
      8344.8    0.4723372     2.187456     0.127349     16105.67
        8345    0.4905522      2.21327    0.1288481     16106.02
      8345.2    0.5093371     2.238987    0.1305093     16107.29
      8345.4     0.528971     2.265141    0.1322467     16108.38
      8345.6    0.5495212     2.291864    0.1331649     16108.97
      8345.8    0.5709135     2.319067    0.1334577      16109.8
        8346    0.5924372     2.345519    0.1327386     16111.34
      8346.2    0.6141363     2.371907    0.1311103      16112.2
      8346.4    0.6362382     2.398054    0.1300278     16113.32
      8346.6    0.6595902     2.423955    0.1289602     16114.38
      8346.8    0.6834935     2.449541    0.1246822     16115.15
        8347    0.7079413     2.475075    0.1199561     16115.81
      8347.2    0.7315994       2.4978     0.114632     16116.64
      8347.4    0.7561388      2.51992    0.1077671     16117.12
      8347.6    0.7816054     2.541247    0.1017393     16117.64
      8347.8    0.8089431     2.561289   0.09386988     16118.04
        8348    0.8369956     2.579192   0.08434464     16118.89
      8348.2    0.8661437     2.595016   0.07363344     16119.24
      8348.4    0.8961569     2.608722   0.06454429     16119.59
      8348.6    0.9270221     2.620195   0.05513889     16119.39
      8348.8    0.9598779     2.630827   0.04740009     16119.71
        8349    0.9943425     2.639127   0.03938523     16119.31
      8349.2     1.030225     2.646643   0.03092988     16118.97
      8349.4     1.066786     2.651704   0.02496538     16118.81
      8349.6      1.10434     2.655571    0.0184629     16118.66
      8349.8     1.142994       2.6591   0.01352938      16119.1
        8350     1.181122     2.661413   0.01033453     16118.94
      8350.2     1.219367     2.662527  0.005886139     16118.91
      8350.4     1.257543     2.663839   0.00262659     16119.21
      8350.6     1.294603     2.663808 -0.0001053617     16119.05
      8350.8     1.330776     2.663514 -0.004825191     16119.22
        8351     1.365601     2.662443 -0.007345577     16119.75
      8351.2     1.397848     2.659978  -0.01056379     16119.48
      8351.4     1.427295     2.657932  -0.01182202     16119.98
      8351.6      1.45487     2.655063  -0.01287335     16120.61
      8351.8     1.480903     2.652985  -0.01433958      16121.3
        8352     1.503958      2.64968  -0.01412295     16121.52
      8352.2     1.523398      2.64646  -0.01535258     16121.19
      8352.4     1.539694     2.643765  -0.01500453     16120.72
      8352.6     1.553076     2.640703  -0.01327738     16121.06
      8352.8     1.562972     2.637676  -0.01216313     16120.92
        8353     1.569826     2.635838 -0.009308172     16120.91
      8353.2     1.573078     2.634034 -0.005672692     16122.18
      8353.4     1.572007     2.633257  -0.00356883     16121.98
      8353.6       1.5677     2.633138  0.001167552     16123.11
      8353.8      1.55975     2.632983  0.004539215     16123.36
        8354     1.547153     2.634968  0.008356844     16123.98
      8354.2     1.531156     2.636888   0.01369713     16124.64
      8354.4     1.512166     2.639823   0.01763382     16125.45
      8354.6     1.490239     2.643941   0.02288366     16125.55
      8354.8     1.466289     2.649075   0.02696403     16126.29
        8355      1.44077     2.655195   0.03202207     16127.21
      8355.2     1.413928     2.661395   0.03522248     16128.24
      8355.4     1.386307     2.669559   0.03738345     16128.25
      8355.6     1.358801     2.677253   0.03945124     16129.76
      8355.8     1.331493     2.685102   0.03948625     16130.15
        8356     1.304395     2.692956   0.03961828     16131.21
      8356.2     1.278454     2.701148   0.03879099     16131.68
      8356.4     1.254024     2.708948   0.03758199     16133.22
      8356.6     1.230962     2.716134   0.03546782     16133.05
      8356.8     1.209141     2.723021   0.03266191     16134.01
        8357     1.188757     2.729522   0.02992679     16135.53
      8357.2     1.169962     2.735077    0.0255249     16136.57
      8357.4     1.153645     2.740076   0.02037288     16137.16
      8357.6     1.138279     2.743441   0.01648809     16137.93
      8357.8     1.124612      2.74582   0.01114786     16138.35
        8358     1.112133     2.748268  0.007412587     16139.66
      8358.2     1.100922     2.748994  0.002676311     16140.49
      8358.4     1.090838     2.749371 -0.003453874     16141.39
      8358.6     1.082223     2.747961 -0.007763983      16142.4
      8358.8     1.074478     2.745505  -0.01295124     16143.14
        8359     1.067281     2.742783  -0.01465317     16144.05
      8359.2     1.060578      2.73901  -0.01640827     16144.25
      8359.4     1.054392     2.736239  -0.01723929     16145.29
      8359.6      1.04868     2.732378  -0.01867902      16146.1
      8359.8     1.043434     2.728992  -0.02083073     16146.13
        8360     1.038547     2.724067  -0.02181724     16147.04
      8360.2      1.03379     2.719574   -0.0233901     16147.77
      8360.4     1.029182     2.714924  -0.02238761     16148.86
      8360.6     1.024835     2.710279  -0.02177072     16149.98
      8360.8      1.02031     2.706157  -0.02036927     16150.24
        8361     1.016072     2.702158  -0.01954214     16151.53
      8361.2     1.011846     2.698629   -0.0186579     16152.39
      8361.4     1.007575     2.694646  -0.01785237      16152.7
      8361.6     1.003409     2.691231  -0.01694905      16153.9
      8361.8    0.9993973     2.687876  -0.01657826     16155.56
        8362    0.9953042      2.68507  -0.01679955     16155.63
      8362.2     0.991388     2.681383  -0.01704301     16156.08
      8362.4    0.9878203     2.677791  -0.01815739     16157.17
      8362.6     0.984131     2.674241  -0.01814841     16157.79
      8362.8    0.9809244     2.670544  -0.01841111     16159.23
        8363    0.9778395     2.666864  -0.01960834     16160.18
      8363.2     0.975032     2.663062  -0.02090825     16161.21
      8363.4    0.9724432     2.658555  -0.02192835     16161.77
      8363.6     0.970346     2.653817  -0.02305558     16163.32
      8363.8    0.9687585     2.649322  -0.02350318     16163.98
        8364    0.9675951     2.644618  -0.02330679     16165.63
      8364.2    0.9668917     2.639752  -0.02425489     16166.19
      8364.4    0.9667247     2.635172  -0.02451286      16166.5
      8364.6    0.9672126     2.629918  -0.02453802     16168.31
      8364.8    0.9681461     2.625007   -0.0238664     16169.33
        8365     0.969568     2.620122  -0.02364429     16170.23
      8365.2     0.971444     2.616079  -0.02268408     16171.12
      8365.4    0.9739251     2.611002  -0.02126784     16171.94
      8365.6    0.9768752      2.60686   -0.0205231     16173.34
      8365.8    0.9800993     2.603107   -0.0183609     16174.19
        8366     0.983549      2.59966   -0.0166732     16175.35
      8366.2    0.9873511     2.596314  -0.01511261     16176.17
      8366.4    0.9913449     2.593522  -0.01331079     16177.63
      8366.6    0.9952019     2.591017  -0.01137584     16178.39
      8366.8    0.9991581     2.589012   -0.0098448      16179.1
        8367      1.00311     2.587213 -0.008536521     16179.97
      8367.2     1.006947     2.585646 -0.008115893     16181.33
      8367.4     1.010535     2.584188 -0.008269214     16182.03
      8367.6     1.013896     2.582519 -0.006249136     16182.85
      8367.8     1.016861     2.580598 -0.006164006      16183.7
        8368     1.019623     2.580646 -0.005035283     16185.87
      8368.2     1.021894     2.579257 -0.004056547     16187.09
      8368.4     1.023818     2.578491 -0.004472032     16188.52
      8368.6     1.025238     2.577352 -0.003591452     16189.47
      8368.8     1.025996     2.577069 -0.003700592      16189.9
        8369     1.026388     2.576384 -0.003521313     16190.97
      8369.2     1.026177      2.57553 -0.003219085     16192.11
      8369.4     1.025584     2.574535 -0.002195325     16193.03
      8369.6     1.024423     2.574493 -0.0006639251     16194.24
      8369.8       1.0228     2.574627 0.0008676999     16194.64
        8370      1.02056     2.574999  0.001103533     16195.07
      8370.2     1.018162      2.57523  0.001962687     16195.81
      8370.4     1.015438     2.575376  0.002296188     16196.49
      8370.6     1.012202     2.576198  0.003495199     16197.25
      8370.8     1.008881     2.576836  0.005259345     16198.52
        8371     1.005234     2.578026    0.0059406     16199.54
      8371.2     1.001447     2.579584  0.007924104     16200.52
      8371.4    0.9974949      2.58095  0.008524318      16201.2
      8371.6    0.9933796     2.583175  0.009639693     16202.05
      8371.8     0.989027     2.584845   0.01096062     16203.03
        8372    0.9846856     2.587296   0.01190674     16203.97
      8372.2    0.9800861     2.589719   0.01438942     16204.27
      8372.4    0.9754495     2.592701   0.01493035     16205.04
      8372.6    0.9708205     2.596357   0.01633378      16206.1
      8372.8    0.9660305      2.59924    0.0161757     16206.35
        8373    0.9613635     2.602786   0.01721251     16207.29
      8373.2     0.956579     2.605641   0.01890378     16207.72
      8373.4    0.9517115     2.610127   0.01997045     16208.79
      8373.6    0.9467282     2.614363    0.0218828     16209.41
      8373.8    0.9415826     2.618762   0.02158652     16209.87
        8374    0.9367103     2.623147   0.02189198     16210.53
      8374.2    0.9317865     2.627396   0.02218972     16210.66
      8374.4     0.926932     2.631876   0.02327661     16211.01
      8374.6    0.9217997     2.636514   0.02465761     16211.23
      8374.8    0.9165952     2.641769   0.02495807     16211.74
        8375    0.9113836     2.647122   0.02569966     16212.17
      8375.2    0.9066006     2.651843   0.02559903     16213.42
      8375.4    0.9018434     2.657073   0.02544622     16214.11
      8375.6     0.897023     2.662248    0.0269228      16214.6
      8375.8    0.8921205     2.667479   0.02774461     16215.56
        8376    0.8872994     2.673381   0.02791148     16216.06
      8376.2    0.8826095     2.679269    0.0286238     16216.89
      8376.4    0.8782737     2.684577   0.02943207      16217.8
      8376.6    0.8740696     2.690378   0.02996605     16219.25
      8376.8    0.8698205     2.696927   0.03057776     16219.99
        8377    0.8657142     2.703242   0.03083458     16220.45
      8377.2     0.861918     2.709039    0.0299774     16222.03
      8377.4    0.8582816     2.715046   0.02957295     16222.77
      8377.6    0.8547946     2.720909   0.03018013     16223.29
      8377.8    0.8517141       2.7269   0.03011413     16224.18
        8378    0.8488551     2.733183   0.02967601     16225.73
      8378.2    0.8460294     2.739137   0.02992492     16226.05
      8378.4    0.8433484     2.744649   0.02935363     16226.79
      8378.6    0.8409927      2.75084   0.02900158     16227.94
      8378.8    0.8385894     2.756666   0.02921387     16227.92
        8379    0.8364034     2.762338   0.02803631     16228.83
      8379.2    0.8344662     2.768021   0.02763544     16229.41
      8379.4    0.8326924     2.773269   0.02713901     16229.87
      8379.6    0.8310374     2.778775   0.02555395     16230.42
      8379.8    0.8296235     2.784049   0.02476935     16232.13
        8380    0.8281455     2.788464   0.02334904     16232.35
      8380.2    0.8270507     2.793085   0.02171421     16233.62
      8380.4    0.8261082     2.797454   0.02077242        16234
      8380.6    0.8254286     2.801421   0.01949324     16235.35
      8380.8    0.8248823     2.805082   0.01786217     16236.26
        8381    0.8243727     2.808679   0.01615628     16236.37
      8381.2    0.8241881     2.811744   0.01399286      16237.7
      8381.4     0.824054     2.814346   0.01163621     16238.01
      8381.6    0.8242112     2.816276   0.01013565     16238.63
      8381.8      0.82458     2.817988  0.008122098     16239.64
        8382    0.8250184     2.819852   0.00720113     16240.13
      8382.2     0.825809     2.820844  0.004779291     16241.07
      8382.4    0.8267582     2.822037   0.00233103     16242.38
      8382.6    0.8279511     2.821812 0.0004618624      16243.4
      8382.8     0.829108     2.821717 -0.002811509     16243.96
        8383     0.830338     2.821213  -0.00464869     16245.11
      8383.2    0.8316483     2.819788  -0.00669195     16245.18
      8383.4    0.8333434     2.818093 -0.008166354     16246.62
      8383.6    0.8350384     2.816363 -0.009482666     16247.53
      8383.8    0.8366142      2.81468  -0.01030553     16247.73
        8384    0.8382628     2.812202  -0.01124941     16248.65
      8384.2    0.8398168     2.809848  -0.01401872     16249.13
      8384.4     0.841467     2.807364  -0.01486701     16249.96
      8384.6    0.8430507     2.803465  -0.01695545     16250.86
      8384.8    0.8447151     2.800308  -0.01850645      16251.8
        8385    0.8463088     2.796284  -0.01875411     16252.19
      8385.2    0.8478824     2.792559  -0.02059696     16253.08
      8385.4    0.8492151     2.788462  -0.02159435     16253.26
      8385.6    0.8505463      2.78383  -0.02343774      16253.6
      8385.8    0.8518859     2.779009  -0.02503807     16254.55
        8386    0.8529904     2.773809  -0.02634098     16254.67
      8386.2    0.8542268     2.768431  -0.02679718     16255.49
      8386.4    0.8554061     2.762758  -0.02719706     16256.19
      8386.6    0.8564211     2.757571  -0.02802121     16256.91
      8386.8    0.8574654     2.752051  -0.02785229     16257.55
        8387    0.8585462     2.746014  -0.02962252     16258.58
      8387.2    0.8595641     2.740476  -0.03114256     16259.24
      8387.4    0.8606444     2.733873  -0.03103162      16260.3
      8387.6    0.8616482     2.727137  -0.03186059     16260.85
      8387.8    0.8627998     2.721189  -0.03108862     16261.51
        8388    0.8638539     2.714987  -0.03097858     16262.93
      8388.2    0.8648809     2.709002  -0.03097559     16263.76
      8388.4    0.8659696     2.702354  -0.03101402     16264.79
      8388.6    0.8668583     2.696408  -0.03122496     16265.14
      8388.8    0.8679286     2.690176  -0.02994767     16265.72
        8389    0.8689774     2.684022  -0.02951486     16266.74
      8389.2     0.870173     2.678396  -0.02742147     16267.58
      8389.4    0.8713581     2.672797  -0.02683878     16268.54
      8389.6    0.8725714     2.668239  -0.02576517     16268.37
      8389.8    0.8741052     2.662551  -0.02503163     16269.43
        8390    0.8755614     2.657784  -0.02512203     16269.91
      8390.2    0.8770499     2.652771  -0.02468481     16269.96
      8390.4     0.878513     2.648141  -0.02408144      16269.6
      8390.6    0.8801212     2.642803   -0.0232583     16270.06
      8390.8    0.8816749     2.638519  -0.02392696      16270.5
        8391    0.8833734     2.634165  -0.02237091     16270.96
      8391.2    0.8850778        2.629   -0.0223037     16271.23
      8391.4    0.8869898     2.624906  -0.02195186     16271.93
      8391.6    0.8890135     2.620676  -0.02022109     16273.35
      8391.8    0.8909366     2.616603  -0.01952951     16273.85
        8392     0.892866     2.612823  -0.01877613     16274.04
      8392.2    0.8948957     2.609283    -0.018399     16275.11
      8392.4    0.8968777     2.605655   -0.0186106     16275.05
      8392.6    0.8992717     2.601884   -0.0174207     16275.99
      8392.8    0.9015425     2.597934  -0.01662117     16276.78
        8393    0.9039837     2.595346   -0.0159867      16277.9
      8393.2    0.9063663     2.592358  -0.01523479     16278.57
      8393.4    0.9088576     2.589095  -0.01596993     16279.23
      8393.6    0.9115801     2.585746  -0.01509189     16280.26
      8393.8    0.9145674      2.58257  -0.01320768     16281.48
        8394    0.9174984     2.580284   -0.0118231     16282.22
      8394.2    0.9204261     2.578528  -0.01030317     16282.77
      8394.4    0.9234164     2.576288  -0.01005928     16283.92
      8394.6    0.9264357     2.574328 -0.008885636      16283.8
      8394.8    0.9297472     2.572237 -0.007793743     16284.82
        8395    0.9332005      2.57142 -0.006328033     16285.73
      8395.2    0.9364266     2.570053 -0.005651212     16285.36
      8395.4    0.9398721     2.569265 -0.005023846     16285.78
      8395.6    0.9434195     2.567716 -0.004305965      16287.4
      8395.8    0.9468292     2.567401 -0.003823823     16287.62
        8396     0.950391     2.566608 -0.002296637     16288.71
      8396.2    0.9538749     2.566206 -0.002468775     16289.79
      8396.4    0.9574909     2.565879 -0.002048793     16290.74
      8396.6    0.9610636     2.565426 -0.002238861     16291.49
      8396.8    0.9647534     2.564969 -0.001301681     16292.65
        8397    0.9681845     2.564415 -0.000913516      16292.3
      8397.2    0.9717435     2.564837 -0.0001263954     16293.68
      8397.4    0.9753016     2.564695 0.0005513877     16294.26
      8397.6    0.9788017     2.564868 9.309619e-05     16294.91
      8397.8    0.9823201     2.564856 0.0001105362     16295.41
        8398    0.9857285     2.564912  0.000103913     16295.54
      8398.2    0.9891139     2.564783 -0.0002342626     16296.61
      8398.4    0.9921288     2.564951 4.256715e-05     16296.21
      8398.6    0.9953212     2.564669 0.0006458057     16296.52
      8398.8    0.9984846     2.564946 -0.000550937     16297.07
        8399     1.001482       2.5653 -0.0007622345     16297.62
      8399.2     1.004471      2.56451 -0.0007156409     16298.29
      8399.4     1.007405     2.564059 -0.001885414     16299.18
      8399.6     1.010093     2.564373 -0.001924085     16299.48
      8399.8     1.013012     2.563792 -0.002650742     16300.37
        8400     1.015861      2.56332 -0.002768464     16301.05
        8401     1.030172     2.560685  -0.00316528      16304.4
        8402     1.044809     2.556959 -0.002732589     16307.38
        8403     1.059648     2.553669 -0.001829448     16310.41
        8404     1.074052     2.552389  5.79806e-05     16315.06
        8405      1.08717     2.553367  0.002411419     16318.33
        8406     1.097601     2.557191  0.004670776      16322.9
        8407      1.10431     2.563315  0.006199463     16327.24
        8408     1.106671     2.571073   0.00698233     16332.75
        8409     1.105392     2.578165    0.0068266     16337.13
        8410      1.10136     2.585121   0.00624663     16342.07
        8411     1.095678     2.590621  0.006066805     16345.43
        8412      1.08857     2.596059  0.006333769      16348.3
        8413     1.080641     2.602432  0.007240997     16352.64
        8414     1.072662     2.610456  0.008846461     16358.01
        8415     1.064704     2.619585   0.01032117     16362.73
        8416     1.056812     2.631445   0.01103407     16366.59
        8417     1.049363     2.643717   0.01139136     16370.87
        8418     1.042188     2.654592   0.01099723     16376.32
        8419     1.034955      2.66515   0.01051027     16380.85
        8420     1.027969     2.675434   0.01053131     16384.02
        8421     1.021014     2.685758   0.01089371     16387.48
        8422     1.014434     2.696717   0.01170242     16391.23
        8423     1.008293     2.708725   0.01264886     16394.38
        8424     1.002446     2.722244   0.01340979     16396.26
        8425    0.9975009     2.736353   0.01403074     16398.22
        8426    0.9927387     2.750356   0.01404793     16400.24
        8427    0.9882305     2.764848   0.01366357     16403.85
        8428    0.9840654     2.778435    0.0124028     16407.91
        8429    0.9803694     2.791008   0.01008115     16411.41
        8430    0.9774902     2.799968  0.007277072     16414.64
        8431    0.9756885     2.805173  0.003556481     16419.54
        8432    0.9749688     2.807544 -0.0001979726     16423.89
        8433     0.975359     2.805234 -0.003946147     16428.06
        8434    0.9763041     2.799176  -0.00762347        16432
        8435    0.9781806     2.789388  -0.01070079      16436.4
        8436     0.980324      2.77705  -0.01317151        16440
        8437    0.9823181     2.762431  -0.01488999     16442.03
        8438    0.9843834      2.74649  -0.01609547     16445.23
        8439    0.9859435     2.729828  -0.01672158     16449.78
        8440     0.987238     2.712668  -0.01727635     16455.39
        8441    0.9881228     2.695544  -0.01729845     16459.86
        8442    0.9887877     2.677384  -0.01696057     16463.29
        8443    0.9893934     2.660635  -0.01627737     16467.76
        8444    0.9901419     2.644825  -0.01468002     16470.91
        8445    0.9910158     2.630435  -0.01321233     16474.53
        8446    0.9919322     2.618664  -0.01171924     16477.45
        8447    0.9926416     2.607785  -0.01087846      16479.6
        8448    0.9931601     2.597949   -0.0111348     16482.83
        8449    0.9935985     2.586921  -0.01182768     16488.09
        8450    0.9938031     2.574125  -0.01331298     16492.38
        8451    0.9935313     2.560475  -0.01470102     16496.68
        8452    0.9932849     2.544697   -0.0154406     16501.16
        8453    0.9933794     2.528117  -0.01570728      16505.3
        8454    0.9937668     2.512363  -0.01511728     16508.62
        8455    0.9942121     2.497645  -0.01378634     16511.52
        8456    0.9943825     2.484227  -0.01189156      16515.6
        8457    0.9947571     2.472971 -0.009491151     16519.57
        8458    0.9951302     2.464796 -0.006405799      16523.9
        8459    0.9953589     2.459681 -0.003381929      16527.7
        8460    0.9953417     2.458604 -0.0004667547     16530.73
        8461    0.9953942     2.459444  0.002373891     16535.22
        8462    0.9951208     2.462929  0.004750333     16539.39
        8463    0.9940493     2.469176  0.006776996     16542.49
        8464    0.9926555     2.477606  0.008495925     16545.54
        8465    0.9909144     2.486552  0.009667119      16549.4
        8466    0.9883598     2.496913   0.01034469     16553.17
        8467    0.9851885     2.507845   0.01104911     16556.95
        8468    0.9811908     2.518984   0.01133755     16560.23
        8469    0.9762993     2.530748   0.01118813     16563.08
        8470    0.9708471     2.542263    0.0106598     16565.87
        8471    0.9654789     2.552597  0.009475802     16568.99
        8472    0.9605841     2.561624  0.007713276     16572.45
        8473     0.956419     2.568651  0.005902581     16575.98
        8474    0.9532784     2.573116  0.003832533     16579.93
        8475    0.9509427     2.576208  0.001686718     16583.68
        8476    0.9493803     2.576954 5.137888e-05     16586.81
        8477    0.9490256     2.575398 -0.001485853     16588.92
        8478     0.950037     2.573322 -0.002325503     16591.28
        8479    0.9525941     2.570264 -0.002306595     16595.13
        8480    0.9562422     2.567652 -0.001965469     16600.35
        8481    0.9610359     2.566172 -0.0003955921     16605.94
        8482    0.9668309      2.56546  0.001753031     16611.48
        8483    0.9728399     2.568682  0.004643123     16616.37
        8484    0.9792325     2.574664  0.008270135     16620.19
        8485    0.9855955     2.584744   0.01178226     16622.28
        8486    0.9917818      2.59854   0.01513642     16624.14
        8487    0.9976439     2.615811   0.01760847     16626.72
        8488     1.003254      2.63521   0.01910833     16631.44
        8489     1.008292     2.655178   0.01956452     16634.41
        8490     1.012559     2.674974   0.01902085     16637.61
        8491     1.016145     2.694069   0.01767211     16642.66
        8492      1.01938     2.711293   0.01558901     16648.78
        8493     1.021561     2.725867   0.01298884     16652.92
        8494     1.023154      2.73733   0.01022819     16655.73
        8495     1.023719     2.746024  0.007606409     16657.73
        8496     1.023717     2.752206  0.005493508     16660.75
        8497     1.023929     2.756292  0.003560057      16665.2
        8498     1.023995     2.759304  0.002055886     16667.48
        8499     1.024101     2.760265 0.0006126768     16670.06
        8500     1.023982     2.760429 -0.0009367983     16672.67
        8501      1.02436     2.758743 -0.002434531     16677.96
        8502     1.024925     2.755557 -0.004313099     16682.77
        8503     1.025769     2.750526 -0.006339065     16687.37
        8504        1.027     2.743177 -0.008547788     16691.46
        8505     1.028187     2.733387  -0.01083318     16694.17
        8506     1.029657     2.721366  -0.01297872        16698
        8507     1.031485     2.707194  -0.01494478     16701.07
        8508     1.033247     2.691262  -0.01684162     16704.74
        8509     1.035147     2.673608  -0.01856381     16708.07
        8510     1.036881     2.653999  -0.02020375     16712.01
        8511     1.038465     2.632939  -0.02144876     16716.14
        8512     1.040027     2.610447  -0.02250674     16720.43
        8513     1.042391     2.587813   -0.0233129     16725.06
        8514     1.046186     2.563972  -0.02392095     16725.99
        8515      1.04978     2.539687  -0.02434256     16713.15
        8516     1.051046     2.514763  -0.02416016     16691.56
        8517      1.05154     2.490442   -0.0233575     16684.83
        8518     1.050837     2.467331  -0.02186605     16683.55
        8519     1.048948     2.446257  -0.01988045     16684.16
        8520     1.047619     2.427299  -0.01745685     16684.71
        8521     1.045248     2.410921  -0.01459556     16686.98
        8522     1.041939     2.397504   -0.0112907     16691.21
        8523     1.038896     2.387875 -0.007660894     16695.51
        8524     1.036983     2.382136 -0.003929562     16702.52
        8525     1.035687     2.380277 -0.0005368786     16705.96
        8526     1.032133     2.381786  0.002565186     16708.22
        8527     1.026673     2.385727  0.005471829     16712.63
        8528     1.021945     2.392397  0.008028253      16720.6
        8529     1.017228     2.402164   0.01012083     16726.21
        8530     1.012134     2.413899   0.01178002     16728.82
        8531     1.007683     2.426211   0.01252563     16729.96
        8532     1.004381     2.439517   0.01285517     16733.46
        8533     1.000385     2.452267   0.01300906     16736.19
        8534    0.9948441      2.46532   0.01248176     16738.91
        8535    0.9899876     2.478247   0.01193316     16745.98
        8536    0.9861573     2.489444    0.0110179     16749.78
        8537    0.9823234     2.499999  0.009908054      16752.3
        8538    0.9799392     2.509391   0.00882895     16751.66
        8539     0.977368     2.517879   0.00776533     16753.82
        8540    0.9742751      2.52476  0.006476894     16762.24
        8541    0.9730323     2.531061   0.00500237     16765.95
        8542    0.9728625     2.535299  0.003689622     16767.87
        8543    0.9729111     2.537888  0.002087867     16772.95
        8544    0.9742164     2.539518  0.000852509     16779.48
        8545    0.9767905     2.539412 -7.95341e-05      16783.1
        8546    0.9781117     2.538709 -0.001096503     16785.14
        8547    0.9795921      2.53757 -0.001653501      16788.9
        8548    0.9813519     2.535132 -0.001988806     16793.75
        8549    0.9829931     2.532798 -0.002436633     16798.06
        8550    0.9855466     2.530753 -0.002620671     16801.84
        8551    0.9878274     2.527824 -0.002759442     16807.74
        8552    0.9902327      2.52465 -0.003077958     16809.31
        8553    0.9932451      2.52176 -0.003254451     16811.47
        8554    0.9961184     2.518442 -0.003280809     16815.36
        8555    0.9980507     2.514806 -0.003691303     16819.37
        8556     1.000587     2.511526  -0.00394054     16823.85
        8557     1.002702     2.506995 -0.004144024     16826.67
        8558     1.004367     2.502679 -0.004392867     16832.65
        8559     1.005494      2.49823 -0.004202871     16835.32
        8560     1.005949     2.493955 -0.003666165     16835.28
        8561     1.006449     2.490184 -0.002966135     16837.92
        8562     1.006882     2.488015 -0.001816527     16843.78
        8563      1.00827     2.486365 -0.0002684012     16848.25
        8564     1.009701     2.486689   0.00129025     16852.11
        8565     1.009975      2.48911  0.003185757     16856.77
        8566     1.009857     2.493176  0.005064584     16861.93
        8567     1.009725     2.499108  0.006672253     16864.28
        8568      1.00982     2.506947  0.008208363      16865.3
        8569      1.00957     2.515799  0.009222253      16869.6
        8570     1.009625     2.526009  0.009462175     16875.01
        8571     1.010699     2.535997  0.009446316     16882.12
        8572     1.011805     2.544796  0.008996466     16890.42
        8573     1.012603     2.553584  0.008353458     16895.93
        8574     1.013787     2.561995  0.007734154     16898.83
        8575     1.014938     2.569411  0.006893814     16901.01
        8576     1.014782     2.575732  0.006020986     16906.07
        8577     1.014498      2.58116  0.004962519     16909.97
        8578     1.014737     2.586079  0.004197805     16914.95
        8579     1.015557     2.589261  0.003441613      16920.3
        8580     1.015887     2.592524   0.00229312      16924.2
        8581     1.015911     2.594926  0.001345655     16928.57
        8582     1.016175     2.595252 0.0001839435     16934.48
        8583     1.016858     2.594644 -0.0008866193     16938.19
        8584      1.01769     2.593259  -0.00198327     16939.64
        8585      1.01844      2.59138 -0.002965261     16940.66
        8586     1.018501     2.587318 -0.004204745     16941.88
        8587     1.018733     2.582783 -0.005564741     16943.75
        8588     1.019403      2.57644 -0.006832087     16945.07
        8589     1.019925     2.569121 -0.008131747     16948.94
        8590     1.020372      2.55999 -0.009042315      16956.7
        8591     1.020104     2.550256 -0.009927029      16960.7
        8592     1.018539     2.540271  -0.01051853      16961.3
        8593     1.017283     2.529413  -0.01113781     16961.71
        8594     1.016426     2.517916  -0.01158493     16965.19
        8595     1.014602     2.505705  -0.01161457     16969.02
        8596     1.012282     2.493931  -0.01152975     16971.79
        8597     1.010633     2.482954  -0.01117138     16974.21
        8598     1.009019     2.471797  -0.01089393     16976.67
        8599     1.007068     2.461019  -0.01048811     16980.11
        8600      1.00517     2.450356 -0.009913433     16986.12
        8601      1.00317     2.441002 -0.009108586     16990.95
        8602     1.001152     2.432143  -0.00808222     16991.31
        8603    0.9996287     2.424585 -0.007202373     16993.98
        8604     0.998756     2.418027 -0.006220962     17001.88
        8605    0.9981918     2.412192 -0.005369333     17009.15
        8606    0.9977923     2.407259 -0.004452448      17012.2
        8607     0.997332     2.403107 -0.003537854     17016.92
        8608    0.9966791     2.400217 -0.002651329     17021.13
        8609     0.995221     2.398041 -0.001729573      17024.4
        8610     0.993822     2.396654 -0.001117604     17027.66
        8611    0.9934025     2.396189 -0.0005582261     17031.82
        8612    0.9936093     2.395747 -0.0002228231     17036.06
        8613    0.9932758     2.395808 -0.0001084873     17037.86
        8614    0.9925621     2.395763 -0.0001218017     17040.14
        8615    0.9918181     2.395755 -0.0001407989     17044.63
        8616     0.991417     2.395259 -0.0001551989     17046.89
        8617    0.9912401     2.395245 -0.0001724892     17047.92
        8618    0.9908164     2.395142 -0.0001193139     17050.18
        8619    0.9903092     2.395065 -0.0001835576     17051.25
        8620     0.989916     2.394782 -0.0002205079     17050.48
        8621    0.9904048     2.394511 -0.000281101     17045.74
        8622    0.9919861      2.39426 -0.0002994575     17023.17
        8623    0.9938979     2.393941 -0.000325349     16935.43
        8624    0.9933967     2.393584 -0.0001447447     16806.59
        8625    0.9934409     2.393209 -0.000283694     16837.78
        8626    0.9934152     2.393681 -0.0002067813     16904.03
        8627    0.9959276     2.392806 -0.0001486575     17049.62
        8628     0.997664     2.392757 -0.0001951925     17085.04
        8629    0.9990178     2.392615    0.0003082     17094.72
        8630     1.000109       2.3929 0.0005339021      17100.3
        8631     1.001151     2.394039  0.000868583     17106.26
        8632     1.002439     2.394893  0.001281197     17112.45
        8633     1.003361     2.396089  0.001463336     17114.61
        8634     1.003928     2.398025   0.00173856     17116.61
        8635     1.004161     2.399892  0.002066736     17120.19
        8636     1.003534     2.401847  0.002079068     17125.45
        8637     1.003104     2.404356  0.002112641     17130.61
        8638     1.003682     2.406341  0.002182677     17134.13
        8639     1.004007     2.408343  0.002036635     17135.71
        8640     1.003887     2.410578   0.00208783        17138
        8641     1.004197     2.412502  0.002022814      17140.3
        8642      1.00456     2.414693  0.001853507     17141.97
        8643      1.00506     2.416434  0.001672504      17144.8
        8644     1.005892     2.417992  0.001416497     17147.88
        8645     1.006724     2.419192  0.001302982     17150.44
        8646     1.006417     2.420359  0.001233228     17155.26
        8647     1.006608     2.421646  0.001213194     17160.12
        8648     1.007364     2.422925  0.001002855     17164.12
        8649     1.008272     2.424045  0.000951037     17169.34
        8650     1.009007      2.42437 0.0007352642     17174.93
        8651     1.009766      2.42545 0.0006685064     17179.98
        8652     1.011208     2.425866 0.0007562459     17184.79
        8653     1.012584     2.426719 0.0006766843     17187.27
        8654     1.012644     2.427395 0.0007961385     17189.49
        8655     1.012438     2.428157 0.0009019393     17193.87
        8656     1.012648      2.42905 0.0009301224     17198.32
        8657      1.01318     2.430327  0.001122461     17202.01
        8658     1.013652     2.431116  0.001218535     17205.11
        8659     1.013907     2.432647  0.001277108     17208.52
        8660     1.013849     2.433924  0.001528964     17210.27
        8661     1.013929     2.435435  0.001499902     17213.27
        8662     1.013282     2.437231  0.001582401     17216.63
        8663     1.012664     2.438646  0.001525154     17220.55
        8664      1.01296     2.440254  0.001448274     17223.57
        8665     1.013355     2.441536  0.001392873      17224.9
        8666     1.013024     2.443024  0.001162452     17226.55
        8667     1.012186     2.444218 0.0008280156     17231.07
        8668     1.011002     2.444904 0.0005102079     17234.71
        8669     1.010276     2.444848  0.000150871     17238.42
        8670     1.009798     2.445065 -0.0002870903     17243.11
        8671     1.008787     2.444821 -0.000650466     17247.82
        8672     1.006935     2.443756 -0.001317422     17249.89
        8673     1.004937     2.442246 -0.001890186     17252.84
        8674     1.003405     2.439796 -0.002310684     17256.61
        8675     1.002309     2.437261 -0.002864672     17259.02
        8676     1.001014     2.434513 -0.003162152     17261.66
        8677    0.9992153     2.430788 -0.003529502     17265.54
        8678    0.9972945     2.427147 -0.003829754     17269.16
        8679    0.9958058     2.423143 -0.004079958     17275.24
        8680    0.9945926     2.419194 -0.004265638     17278.03
        8681    0.9934932     2.414468 -0.004412673      17281.4
        8682    0.9928204     2.410084 -0.004556995     17285.86
        8683    0.9921005     2.405492 -0.004481057     17289.31
        8684     0.991395     2.400966  -0.00461178     17290.45
        8685     0.990785     2.396544 -0.004581087      17291.7
        8686    0.9900457     2.391637 -0.004482755     17293.33
        8687    0.9893885     2.387168 -0.004366814     17295.86
        8688     0.989314     2.383035 -0.003962563      17298.8
        8689    0.9895274     2.379076 -0.003645838     17301.99
        8690    0.9897779     2.375787 -0.003200903     17306.09
        8691    0.9898338     2.372584 -0.002739714        17310
        8692    0.9899495     2.370231 -0.002379672     17312.76
        8693    0.9898461     2.368117 -0.001856571     17316.33
        8694    0.9900073     2.366268 -0.001428774     17320.07
        8695    0.9905154     2.365158 -0.001157539     17323.66
        8696    0.9908909     2.364516 -0.0008398906     17328.44
        8697    0.9909696     2.363487 -0.0006558316     17327.73
        8698    0.9914187     2.362909 -0.0005420215     17314.74
        8699    0.9913683     2.362535 -0.0003639166     17303.12
        8700     0.990838     2.362348 -0.0005268756     17309.46
        8701    0.9907599     2.362032 -0.0005647052     17320.94
        8702     0.990492     2.360801 -0.0007385312     17334.89
        8703    0.9902626     2.360276 -0.001184989     17343.24
        8704    0.9905471     2.359394 -0.001379744     17348.07
        8705    0.9908468     2.357292 -0.001893278     17348.82
        8706    0.9905292     2.355282 -0.002441957      17339.6
        8707    0.9904869     2.352703  -0.00271315     17330.64
        8708    0.9909681     2.349626 -0.003023886     17335.79
        8709    0.9908773     2.346439 -0.003338781     17345.29
        8710    0.9907349     2.343187  -0.00356339     17357.18
        8711    0.9906079     2.339347 -0.003725186     17365.76
        8712    0.9902256     2.335372 -0.003700213     17371.67
        8713    0.9898783     2.331538 -0.003681499     17376.26
        8714    0.9900107     2.328386 -0.003482967     17380.39
        8715    0.9899559     2.324621 -0.003219646     17384.56
        8716    0.9900367     2.321441 -0.002887879     17389.55
        8717    0.9900704      2.31866 -0.002220249     17392.88
        8718    0.9902494     2.316834 -0.001747424      17396.6
        8719    0.9904269     2.315741 -0.001258605     17401.61
        8720    0.9907801     2.314451 -0.000995222     17405.84
        8721    0.9911539     2.313625 -0.0008641485      17408.3
        8722    0.9917973     2.312854 -0.0006565411     17409.31
        8723    0.9923815     2.312284 -0.0005810238     17411.97
        8724    0.9929333     2.311825 -0.0004827881      17416.3
        8725    0.9935763     2.311301 -0.0003976093     17420.11
        8726    0.9939194     2.310922 -0.0004979909     17423.25
        8727    0.9944353     2.310693 -0.0004422026     17427.87
        8728    0.9951616     2.309833 -0.0005225965     17431.95
        8729    0.9956052     2.309532  -0.00051501     17434.07
        8730    0.9955585     2.308832 -0.0003870007     17435.63
        8731    0.9958848     2.308633 -0.0003638483     17437.77
        8732    0.9968369     2.308285 -9.467848e-05     17441.52
        8733    0.9980701     2.308077 -5.667537e-05     17446.97
        8734    0.9990655     2.308453 1.945787e-05     17452.75
        8735    0.9994748     2.308407 0.0001247868     17456.36
        8736    0.9996423     2.308363 0.0001048764     17457.97
        8737     0.999891     2.308576 0.0002213492        17461
        8738     1.000934     2.308873 0.0003440106     17466.26
        8739     1.001893     2.309292 0.0003350769      17470.4
        8740     1.002763     2.309739 0.0002898334     17473.38
        8741     1.003844     2.309916 0.0002091303      17474.7
        8742     1.004927     2.310032 0.0002848232     17476.46
        8743     1.005752     2.310129 0.0002400649     17479.72
        8744     1.006385     2.310878   0.00036001     17481.82
        8745      1.00723     2.310877 0.0004707628     17485.75
        8746     1.007557     2.311472 0.0004139259     17488.62
        8747      1.00744     2.312012 0.0005843079      17490.2
        8748      1.00728     2.312534  0.000576288     17491.74
        8749     1.007017     2.313214 0.0005350246     17493.26
        8750     1.007249     2.313777 0.0005546663     17496.93
        8751     1.007491     2.314152 0.0004299981     17499.98
        8752     1.007329     2.314752 0.0004313476     17502.42
        8753     1.006998     2.314934   0.00043445     17506.52
        8754     1.007552     2.315503  0.000380276     17511.01
        8755     1.008377      2.31589 0.0004829715     17514.42
        8756     1.008205     2.316273 0.0004420334     17516.83
        8757     1.007581     2.316866 0.0003909717     17519.48
        8758     1.007191     2.317271 0.0003551449     17521.34
        8759     1.006709     2.317453 0.0002351199     17524.16
        8760     1.006276     2.317694 0.0001690537     17528.47
        8761     1.005441     2.317806 0.0001826166     17533.69
        8762     1.004302     2.317947 8.003075e-05     17538.58
        8763     1.003092     2.318184 0.0001292739     17542.65
        8764     1.001907     2.318014 0.0001512158     17545.25
        8765     1.001034     2.318323 0.0001262476     17548.68
        8766     1.000258     2.318552  0.000189929     17551.13
        8767    0.9997245     2.318689 0.0001265153      17553.5
        8768    0.9990375     2.318774 6.814819e-05     17556.38
        8769    0.9982021     2.318829 -1.241684e-05     17559.55
        8770    0.9976417     2.318825 -8.825008e-05     17562.38
        8771    0.9966355     2.318639 -0.0001475363     17565.35
        8772    0.9956705     2.318421 -0.0002165416     17569.08
        8773    0.9947925     2.318239 -0.0003436137     17572.25
        8774    0.9937791     2.317958 -0.0003752548     17575.11
        8775    0.9931391     2.317265 -0.0005925414     17578.37
        8776    0.9928179      2.31692 -0.0007643504     17581.55
        8777    0.9927594     2.315869 -0.0008231746     17582.32
        8778    0.9928712     2.314901    -0.001043     17583.15
        8779      0.99284     2.313972 -0.001125913     17585.08
        8780    0.9925373     2.312748  -0.00136614     17587.43
        8781    0.9928328     2.311366 -0.001470482     17592.62
        8782    0.9935183     2.309436  -0.00168195     17596.38
        8783    0.9941558      2.30809 -0.001880881     17598.51
        8784    0.9950151      2.30602 -0.001924848     17600.03
        8785    0.9951809     2.303842   -0.0021932     17601.51
        8786    0.9947794     2.301737 -0.002358567     17603.64
        8787     0.994585     2.299317 -0.002532298     17606.31
        8788    0.9946623     2.296586 -0.002647849     17607.61
        8789    0.9951259     2.293713 -0.002604304     17608.83
        8790    0.9955323     2.291146 -0.002605241     17613.02
        8791    0.9956307       2.2889 -0.002547032     17617.29
        8792    0.9958562     2.286165 -0.002493154     17621.52
        8793    0.9960924     2.283525  -0.00250697     17625.02
        8794    0.9963819     2.281173 -0.002254593     17627.11
        8795    0.9964332     2.278872 -0.002144815     17629.73
        8796    0.9963555     2.277146 -0.002033734     17632.26
        8797    0.9962282     2.274945 -0.001891897     17633.39
        8798    0.9960459     2.273038 -0.001814563     17635.43
        8799    0.9954118     2.271305 -0.001600283     17637.07
        8800    0.9946315     2.269888 -0.001521956     17639.63
        8801    0.9941974     2.268544 -0.001326938      17641.7
        8802    0.9941614      2.26695 -0.001210752     17644.43
        8803     0.994218     2.265997 -0.001063242     17647.34
        8804     0.994521     2.265045 -0.0008824281      17651.8
        8805    0.9945959     2.264291 -0.0007283696     17655.16
        8806    0.9943376     2.263421 -0.0006619315     17657.56
        8807    0.9942103     2.263083 -0.0006071995     17660.55
        8808     0.994151     2.262397 -0.0005199962     17663.22
        8809    0.9945083     2.261863 -0.000603676     17666.58
        8810    0.9950773     2.261341 -0.0005639811     17669.37
        8811    0.9951705     2.260669 -0.0006162489     17672.54
        8812    0.9947113     2.260142 -0.0006107719     17674.78
        8813    0.9945649     2.259398 -0.0005751395     17676.06
        8814    0.9944844     2.258897 -0.0006237958     17678.74
        8815    0.9946983     2.258368 -0.0006165989     17682.91
        8816    0.9949414     2.257646 -0.0006775735     17686.65
        8817    0.9952046     2.256931 -0.0007976656     17690.11
        8818    0.9952982     2.256187  -0.00088853     17691.79
        8819    0.9955758     2.255178 -0.001070562     17695.07
        8820    0.9958001     2.254092  -0.00114582      17696.7
        8821    0.9957811     2.252649 -0.001193634     17697.42
        8822    0.9958103     2.251604 -0.001243128     17697.87
        8823    0.9958464     2.250403 -0.001260691     17697.55
        8824    0.9958494      2.24912  -0.00138178     17696.52
        8825    0.9957391     2.247606 -0.001503509     17695.77
        8826    0.9953875     2.246077  -0.00166535     17693.33
        8827    0.9951004     2.244389 -0.001764113     17688.31
        8828    0.9953212     2.242458 -0.001867094     17679.47
        8829    0.9957097      2.24055  -0.00199337     17660.35
        8830     0.996655     2.238608 -0.001801962     17611.58
        8831    0.9989015     2.236415 -0.001380286     17463.98
        8832    0.9996598      2.23525 -0.001664189      17203.3
        8833    0.9955017     2.235029 -0.001260017     17214.07
        8834     0.998514     2.231952  -0.00122014     17327.73
        8835    0.9980665     2.231375  -0.00171508     17236.19
        8836    0.9958467      2.23037 -0.001217106     17475.65
        8837    0.9978695     2.228168 -0.001296588     17698.11
        8838    0.9984989     2.227083 -0.001372498     17749.34
        8839    0.9988388     2.226189 -0.001085043     17761.86
        8840    0.9992476      2.22488 -0.001075013     17767.66
        8841    0.9996056     2.223828 -0.001130431     17771.05
        8842    0.9998763     2.222783 -0.001080195     17773.87
        8843     1.000122     2.221667 -0.001146556      17776.5
        8844     1.000227     2.220559 -0.001198126     17779.94
        8845     1.000381     2.219242 -0.001216843     17781.83
        8846     1.000597     2.217991 -0.001178677     17782.85
        8847     1.000974       2.2168 -0.001119729     17786.33
        8848     1.001482     2.215844 -0.001032638     17790.18
        8849     1.001963     2.214763 -0.000957952     17794.39
        8850     1.001985      2.21386 -0.001036779     17797.81
        8851     1.002086     2.212968 -0.001014316     17800.34
        8852     1.002341     2.211697 -0.0009636015     17801.21
        8853     1.002807     2.210706 -0.0009748374     17802.81
        8854     1.002953     2.210006 -0.0008946389     17805.48
        8855     1.002637     2.209069 -0.0008700777     17808.39
        8856     1.002185     2.208119 -0.0008352038     17811.12
        8857     1.001446     2.207225 -0.0007074258     17812.73
        8858     1.001002     2.206665 -0.0005560293     17814.42
        8859      1.00068     2.206239 -0.0004678673     17817.53
        8860     1.000399     2.205895 -0.0004994986     17821.42
        8861     1.000478     2.205354 -0.0004497612     17828.52
        8862     1.000375     2.204667 -0.000368942     17834.31
        8863    0.9995115      2.20444 -0.0002911178     17837.71
        8864    0.9983861     2.204419 -0.0001929499     17839.16
        8865    0.9975467     2.204189 -0.0001818026     17840.23
        8866    0.9970552     2.203895 -0.000127866     17842.46
        8867    0.9966866     2.203713 -0.0001359463     17844.18
        8868    0.9962576     2.203907 -4.318055e-05     17845.85
        8869    0.9959808     2.203646 3.784025e-05     17847.37
        8870    0.9958837     2.203722  4.20442e-05     17851.52
        8871    0.9960625     2.203864 9.834606e-05     17855.42
        8872    0.9961123     2.204076 5.228116e-05     17859.29
        8873    0.9960873     2.204039 8.399702e-05     17862.92
        8874    0.9958191     2.203931 5.331669e-05     17866.16
        8875    0.9957807       2.2042 0.0001681993     17868.67
        8876    0.9955063     2.204289 0.0002422188     17870.89
        8877    0.9951952     2.204712 0.0002803199     17873.65
        8878    0.9950389       2.2049 0.0002811765     17874.98
        8879    0.9950757     2.205321 0.0002426632     17876.95
        8880    0.9952694     2.205414 0.0002091545     17881.49
        8881    0.9953711     2.205682 0.0002372099     17885.17
        8882    0.9951692     2.205737 0.0002607801     17887.24
        8883    0.9948651      2.20627 0.0003376429     17889.18
        8884    0.9946403     2.206457 0.0003060712     17890.32
        8885    0.9944265     2.207033 0.0001823319     17893.24
        8886    0.9942854     2.206961 0.0002749492      17896.4
        8887    0.9940662        2.207 0.0002779046     17900.35
        8888    0.9938603     2.207556  0.000209585     17902.71
        8889    0.9937749     2.208145 0.0001530436     17905.83
        8890    0.9937022       2.2078 -2.913352e-05     17908.92
        8891    0.9937173     2.207612 -0.0002984236     17911.76
        8892     0.993978      2.20744 -0.0002997779     17914.58
        8893    0.9941649     2.206951 -0.0003637756     17915.94
        8894    0.9941878       2.2066 -0.0004937149     17917.94
        8895    0.9942491     2.206157 -0.0005241348     17921.31
        8896    0.9945004     2.205465 -0.0006400303     17925.53
        8897    0.9948333     2.204854 -0.0007677804     17927.62
        8898     0.995476      2.20404 -0.0009414728     17930.41
        8899    0.9961922     2.203086 -0.001093712     17933.08
        8900    0.9962968     2.201699 -0.001248847     17935.29
        8901    0.9961027      2.20048 -0.001326808     17937.53
        8902    0.9959153     2.199045 -0.001367401     17941.24
        8903    0.9959019     2.197778  -0.00150734     17945.15
        8904    0.9960469      2.19623 -0.001538655     17947.48
        8905    0.9964492      2.19445 -0.001688679     17948.68
        8906    0.9966857      2.19289 -0.001777495     17950.33
        8907    0.9964216     2.191024 -0.001727411      17952.9
        8908    0.9962048      2.18912 -0.001765297     17956.79
        8909    0.9960374     2.187541 -0.001729055     17959.49
        8910    0.9958454     2.185829 -0.001707291     17962.28
        8911      0.99547     2.184107 -0.001739588      17966.1
        8912    0.9953873      2.18229 -0.001700729     17970.29
        8913    0.9953145     2.180582  -0.00167742      17971.8
        8914    0.9951806     2.179026 -0.001610626     17973.71
        8915    0.9950281     2.177398 -0.001530905     17975.35
        8916    0.9952373     2.175848 -0.001448165     17978.56
        8917    0.9953345     2.174459 -0.001380622      17980.1
        8918    0.9953847     2.173234 -0.001286978     17982.12
        8919    0.9952263     2.171875 -0.001269806     17985.04
        8920    0.9951532       2.1707  -0.00121051     17988.04
        8921    0.9954187     2.169379 -0.001201799     17991.02
        8922    0.9956059     2.168392 -0.001116483     17993.61
        8923    0.9956781     2.167068 -0.001011716     17996.56
        8924    0.9957792     2.166234 -0.001081471     17999.13
        8925    0.9960981     2.165332 -0.001007151     18002.33
        8926    0.9964657     2.164066 -0.001033046     18005.71
        8927    0.9969268     2.163039 -0.001062243     18008.77
        8928    0.9973044     2.162102 -0.001053812     18009.45
        8929    0.9978227     2.161083   -0.0009352     18011.01
        8930    0.9984021      2.15985 -0.0009026829      18013.5
        8931    0.9990668     2.159299 -0.0008583792     18016.78
        8932    0.9996437     2.158491 -0.0007820974     18020.07
        8933     1.000277      2.15765 -0.0008283366     18023.53
        8934     1.000459     2.156722 -0.0007942232      18025.4
        8935      1.00028     2.155985 -0.0008868251     18026.78
        8936     1.000634     2.155314 -0.0008341236     18022.48
        8937     1.001438     2.154103 -0.0007610811     17997.76
        8938     1.001905     2.153386 -0.0007931756     17946.73
        8939      1.00143     2.152941 -0.0007288902        17929
        8940     1.001264     2.152142 -0.0007237884     17953.43
        8941     1.001208     2.151187 -0.000768037      18006.2
        8942     1.001524      2.15049 -0.0007992582     18028.29
        8943     1.001966     2.149869 -0.0007128499     18036.17
        8944      1.00208     2.148945 -0.000773956     18042.24
        8945     1.002001     2.148336 -0.0008519853     18047.75
        8946     1.002136     2.147395 -0.0007623399     18053.08
        8947     1.002174     2.146461 -0.0008987574     18056.33
        8948     1.002171     2.145895 -0.0008675429     18058.64
        8949     1.002266     2.144741 -0.0008384821        18061
        8950     1.002453     2.143924 -0.0009124031     18063.48
        8951     1.002637     2.143107 -0.0009049607      18065.1
        8952     1.003125     2.142246 -0.0008875854     18067.95
        8953     1.003548     2.141121 -0.0008772943     18071.06
        8954     1.003488     2.140374 -0.0008931258     18074.79
        8955     1.003032     2.139598 -0.0008090699     18077.65
        8956     1.002687     2.138673 -0.0008698351     18078.54
        8957     1.002492     2.137885 -0.0008626866     18079.73
        8958     1.001987     2.136895 -0.0008751305     18081.24
        8959     1.001738     2.136147 -0.0009460783      18083.6
        8960     1.001845     2.135173 -0.0009271031     18085.49
        8961     1.002057       2.1341 -0.001014977     18088.05
        8962      1.00188     2.133186 -0.0009491494     18091.12
        8963     1.001201     2.132087 -0.000956782     18093.98
        8964     1.000601     2.131376 -0.0009525004      18096.7
        8965     1.000186     2.130273 -0.0009469794     18100.71
        8966    0.9998956     2.129376 -0.001007034      18104.3
        8967     1.000069     2.128299  -0.00100231     18106.58
        8968     1.000141     2.127348 -0.0009983043     18107.55
        8969     1.000211     2.126264 -0.0009980349     18108.97
        8970     1.000277     2.125383 -0.0009432035     18110.75
        8971     1.000427     2.124307 -0.0009168408     18114.69
        8972     1.000564     2.123575 -0.0009230473     18119.41
        8973     1.000565     2.122597 -0.0009071355     18122.15
        8974     1.000424     2.121691 -0.0009125678     18124.34
        8975     1.000192     2.120679 -0.0009082627     18126.28
        8976      1.00005     2.119925 -0.0008567291      18128.4
        8977    0.9999789     2.118963 -0.0008829095     18130.43
        8978     1.000017     2.118264 -0.000801763     18132.03
        8979     1.000135     2.117147 -0.0008048198     18133.33
        8980     1.000243     2.116718 -0.0007901244     18135.15
        8981     1.000402     2.115744 -0.0006948566     18136.87
        8982     1.000432     2.115103 -0.0007057029     18136.88
        8983     1.000324     2.114367 -0.000662164     18137.62
        8984    0.9999526     2.113895 -0.0006772323     18139.92
        8985    0.9997078     2.113096 -0.0006358467     18142.36
        8986    0.9993965     2.112395 -0.0006489117     18144.45
        8987    0.9991653     2.111824 -0.0006243986     18147.07
        8988    0.9988381     2.111299 -0.0005635481     18149.25
        8989    0.9986872     2.110598 -0.0005637483     18151.59
        8990    0.9982794      2.11014 -0.0005728323     18153.03
        8991    0.9983615     2.109569 -0.0005574699     18153.85
        8992    0.9983631     2.109008 -0.0005512122     18155.36
        8993    0.9984223     2.108368 -0.0005168533     18157.19
        8994    0.9986208     2.107935 -0.000521555     18159.57
        8995    0.9988339     2.107502 -0.0005031674      18161.9
        8996    0.9989876     2.106922 -0.0005516058     18164.69
        8997    0.9989747     2.106355 -0.0006087289     18167.43
        8998    0.9989996     2.105729 -0.0005815043     18168.92
        8999    0.9987757     2.105067 -0.0005612187     18170.29
        9000    0.9986211     2.104596 -0.0005334479     18172.85
        9001    0.9984697     2.104111 -0.0004588462     18175.28
        9002     0.998352     2.103595 -0.0004829603     18178.02
        9003    0.9983073     2.103231 -0.0005034153     18181.19
        9004    0.9982454     2.102664 -0.0004414354     18184.96
        9005    0.9981494     2.102097 -0.0004796779     18188.37
        9006    0.9981675      2.10183 -0.0004929109     18190.39
        9007    0.9982432     2.101313  -0.00043695     18192.15
        9008    0.9986396     2.100692 -0.0005196593      18195.2
        9009    0.9985893     2.100349 -0.0005176964      18197.4
        9010    0.9984609     2.099751 -0.0004838565     18198.37
        9011    0.9984909     2.099242 -0.0005129619      18199.7
        9012    0.9986764     2.098757 -0.0004242427     18201.63
        9013    0.9988486     2.098297 -0.0004745928     18203.68
        9014    0.9991825     2.098054 -0.0003989827     18205.37
        9015    0.9998326     2.097344 -0.0004166403      18208.4
        9016     1.000176     2.097161 -0.0005022226      18211.3
        9017     1.000041     2.096631  -0.00037919     18213.28
        9018    0.9994262     2.096045 -0.000467521     18214.94
        9019    0.9988276     2.095827 -0.0004957249      18217.9
        9020    0.9984315     2.095291 -0.0004964719     18221.22
        9021     0.998372     2.094648 -0.000486973     18225.05
        9022    0.9983192     2.094059 -0.0005527287     18226.98
        9023    0.9984337     2.093879 -0.0005813088     18229.45
        9024    0.9986778      2.09308 -0.0005374301     18232.16
        9025    0.9988714     2.092323 -0.0006376004     18234.04
        9026    0.9989743     2.091909 -0.0006231086     18235.62
        9027    0.9988219     2.091328 -0.000651495     18238.51
        9028    0.9985735     2.090587 -0.0006868459     18241.74
        9029    0.9985069     2.089717 -0.0007213243     18244.37
        9030    0.9986543     2.089162 -0.0007136043     18247.15
        9031     0.998809     2.088443 -0.0006626277     18249.14
        9032    0.9987901     2.087733 -0.0007480144     18250.53
        9033    0.9986684     2.087066 -0.0008013334     18251.77
        9034    0.9986728      2.08617 -0.000788078     18254.21
        9035    0.9986344     2.085238 -0.0008058341     18257.28
        9036    0.9986842     2.084581 -0.0007595549     18259.56
        9037    0.9988466     2.083843 -0.0007086023     18262.51
        9038    0.9988119     2.083132 -0.0007110755     18263.14
        9039    0.9990164     2.082403 -0.0007804348     18263.86
        9040    0.9993529     2.081736 -0.000738693     18265.44
        9041    0.9995971     2.080721 -0.0007590437     18267.19
        9042    0.9998292     2.080177 -0.0007917393     18269.33
        9043    0.9997841     2.079367 -0.0006619386     18270.55
        9044    0.9996444     2.078569 -0.0007745971     18273.39
        9045    0.9994986     2.078073 -0.0008271011     18277.32
        9046     0.999281     2.077079 -0.0008660206     18280.15
        9047    0.9990292     2.076059 -0.0009384817     18282.64
        9048    0.9989523     2.075105 -0.0009058996     18284.86
        9049    0.9989538     2.074319 -0.0008114844     18286.22
        9050    0.9989474     2.073455 -0.0008225332     18286.47
        9051    0.9987109     2.072813 -0.0009353904     18288.02
        9052    0.9987099     2.071815 -0.0009250588     18291.36
        9053    0.9989468     2.070578 -0.001060287     18295.17
        9054     0.998823     2.069755 -0.0009833415     18297.91
        9055    0.9988515     2.068572 -0.000828979     18299.96
        9056    0.9988631     2.067882 -0.0008397966     18300.53
        9057    0.9989119     2.067262 -0.0008027534     18301.45
        9058    0.9989278     2.066396 -0.0008971364     18302.52
        9059    0.9989523     2.065361 -0.0009188968     18303.54
        9060    0.9992586     2.064293 -0.0008955586     18305.19
        9061    0.9994187     2.063586 -0.0009572437     18305.74
        9062     0.999667     2.062813 -0.0008918696     18306.65
        9063     1.000179     2.061532 -0.0008864715     18309.27
        9064     1.000518     2.060726 -0.0008629268     18310.49
        9065     1.000727      2.06004 -0.0007677004     18312.53
        9066     1.000807     2.059362 -0.000779282     18315.73
        9067     1.000908     2.058461 -0.0008114997     18317.05
        9068     1.001257     2.057609 -0.0008141089     18319.43
        9069     1.001328     2.056794 -0.0007639487     18321.42
        9070      1.00147     2.056105 -0.0007407902     18324.47
        9071     1.001441     2.055405 -0.0006991137     18326.59
        9072      1.00168     2.054645 -0.0006999522     18329.33
        9073     1.001746     2.053998 -0.0007449671     18331.43
        9074     1.001907     2.053305 -0.0007702294      18333.7
        9075     1.001963     2.052425 -0.0008809739     18335.53
        9076     1.002011     2.051565 -0.0008407478     18337.03
        9077     1.002184     2.050474 -0.0007908857     18338.99
        9078     1.001895     2.049942 -0.0008406622     18340.78
        9079      1.00153     2.049262 -0.0007642484     18341.71
        9080     1.001535     2.048202 -0.0008315111     18343.51
        9081     1.001739     2.047417 -0.0008336385     18344.53
        9082      1.00168     2.046616 -0.0007829889      18344.3
        9083     1.001565     2.045927 -0.0008679861      18342.7
        9084      1.00173      2.04507 -0.0007658946     18339.27
        9085      1.00191     2.043945 -0.0008287987     18324.91
        9086     1.001747     2.043553 -0.0008507742     18300.19
        9087     1.001275     2.042612 -0.0007743509     18282.58
        9088     1.000765     2.041667 -0.0008210226     18275.21
        9089     1.000646     2.040848 -0.0007717795     18267.17
        9090     1.001054     2.040269 -0.0008355896     18241.99
        9091     1.001015     2.039525 -0.0008447333     18189.74
        9092     1.001351     2.038325 -0.0007156334      18144.5
        9093     1.002232     2.037469 -0.0008060786     18054.63
        9094     1.000088     2.037406 -0.0008064076        18051
        9095     1.000171     2.036301 -0.0007289686     18203.48
        9096     1.002159     2.035099 -0.0007552476     18215.21
        9097      1.00271     2.034553 -0.0006554979     18092.75
        9098     1.001373     2.034385 -0.0006160198     18090.59
        9099     1.001139     2.033679 -0.0006830443     18195.89
        9100     1.001587     2.032635 -0.0008191186     18272.53
        9101     1.001488     2.031821 -0.0008786911     18290.96
        9102     1.001073     2.031109 -0.0008092292     18311.94
        9103     1.000943     2.030164 -0.0007802197     18331.77
        9104     1.000779     2.029398 -0.000815613      18342.3
        9105      1.00052       2.0287 -0.0007923583     18350.68
        9106      1.00011     2.027846 -0.0008069431     18360.98
        9107    0.9997319     2.026994 -0.0008181799     18378.01
        9108    0.9994999      2.02617 -0.0007655328     18394.79
        9109    0.9994648     2.025427 -0.0007457227     18404.33
        9110    0.9995537     2.024784 -0.0007441007     18410.22
        9111    0.9997829     2.024012 -0.0008020656     18414.78
        9112    0.9998938     2.023194 -0.0008480831     18416.95
        9113    0.9999387     2.022219 -0.0008326581     18419.46
        9114    0.9998879     2.021392 -0.0007949204     18423.05
        9115    0.9998835     2.020681 -0.0007741333     18426.96
        9116     0.999754     2.020014 -0.0007879977     18430.48
        9117    0.9997455     2.019122 -0.0007952003     18434.58
        9118    0.9999276      2.01824 -0.0007579672      18436.8
        9119     1.000275       2.0175 -0.0007650118     18438.82
        9120     1.000728     2.016982 -0.0007102048     18440.71
        9121     1.001157     2.016062 -0.0006906893     18441.28
        9122     1.001497     2.015399 -0.0007571677      18441.7
        9123     1.001749     2.014737 -0.0006850879     18442.41
        9124     1.001901     2.013953 -0.0007650756     18444.17
        9125     1.001853     2.013322 -0.0007294224     18448.14
        9126     1.001537     2.012339 -0.0007268156     18451.32
        9127     1.001029      2.01182 -0.0007764846      18454.1
        9128     1.000636     2.011046 -0.0006703555     18455.84
        9129     1.000368     2.010216 -0.0006704641     18458.04
        9130     1.000388     2.009657 -0.0005613808     18460.29
        9131     1.000301     2.009138 -0.0005683472     18461.29
        9132     1.000263     2.008801 -0.0005675526     18462.19
        9133     1.000541     2.007943 -0.0006288171     18464.19
        9134     1.000778     2.007387 -0.0006672599     18466.88
        9135     1.000786     2.006623 -0.0006083868     18468.82
        9136     1.000854     2.006132 -0.0005630137     18469.75
        9137     1.001412     2.005509 -0.0005625276     18470.47
        9138      1.00183     2.005135 -0.0005932648     18471.04
        9139     1.001665     2.004372 -0.0005420759     18470.72
        9140     1.001655     2.003759 -0.0006334211     18472.33
        9141     1.001602     2.003341 -0.0006330262     18474.54
        9142     1.001634     2.002601 -0.0005377487     18478.39
        9143      1.00166      2.00184 -0.0005259942     18481.36
        9144     1.001759     2.001608 -0.0004865288     18483.44
        9145     1.001845     2.001237 -0.0003937021     18486.43
        9146     1.001743     2.000655 -0.0005341291     18488.66
        9147     1.001738     2.000265 -0.0005715213     18490.56
        9148     1.001787     1.999471 -0.0005502425     18491.08
        9149     1.001769     1.998951 -0.0006169082     18491.58
        9150     1.002068     1.998454 -0.000543786     18493.31
        9151     1.002099     1.997798 -0.0005121208     18493.78
        9152     1.001828     1.997296 -0.000483699     18493.81
        9153     1.001555     1.996902 -0.0004462559     18495.93
        9154     1.001298     1.996519 -0.0005119329     18498.08
        9155     1.001214     1.996013 -0.0005307835     18500.38
        9156     1.000949     1.995248 -0.0004939956     18501.41
        9157     1.000583     1.994779 -0.0005636233     18502.36
        9158     1.000279     1.994543 -0.0005358457      18505.4
        9159     1.000311     1.993758 -0.0005236024        18507
        9160     1.000553     1.993105 -0.0006301599     18509.59
        9161     1.000848     1.992685 -0.0006073796     18512.14
        9162     1.001087     1.992023 -0.0006157964     18514.23
        9163     1.001113     1.991329 -0.0006729307     18516.46
        9164     1.001051     1.990642 -0.0006524577     18519.49
        9165     1.000892     1.989993 -0.0006214507     18521.44
        9166     1.000883     1.989413 -0.0006406704     18522.76
        9167      1.00124     1.988843 -0.0006559584     18524.45
        9168     1.001655     1.988079 -0.0006838849     18527.51
        9169     1.002082     1.987369 -0.0006730546     18530.42
        9170     1.002436     1.986677 -0.000708522      18533.5
        9171     1.002526     1.986151 -0.0006505397     18535.98
        9172     1.002205     1.985245 -0.0006704156     18536.05
        9173     1.001952     1.984767 -0.000765901     18536.01
        9174     1.001746     1.983996 -0.0006462436     18535.92
        9175     1.001675     1.983087 -0.0007302452     18536.95
        9176     1.001626      1.98266 -0.0007457459      18537.9
        9177     1.001669     1.981846 -0.000643414     18538.36
        9178     1.001727     1.981013 -0.0006562721     18538.24
        9179     1.001723     1.980514 -0.0006904862     18538.29
        9180      1.00178     1.980035 -0.0006434185     18540.37
        9181     1.001818     1.979084 -0.000740779     18541.65
        9182      1.00192     1.978439 -0.000767976     18542.55
        9183     1.001708      1.97755 -0.0006744049     18542.45
        9184     1.001539     1.976963 -0.0007136392     18543.69
        9185     1.001561     1.976386 -0.0006188412      18546.3
        9186      1.00167     1.975585 -0.0006154175     18547.58
        9187     1.001786     1.975075 -0.0006266446     18549.14
        9188     1.001734     1.974501 -0.0005766117     18550.83
        9189     1.001691      1.97388 -0.0006301577     18551.13
        9190     1.001549     1.973278  -0.00066629     18551.42
        9191     1.001417     1.972554 -0.0006536215     18553.42
        9192     1.001165     1.971836 -0.0006870451     18555.64
        9193     1.001015     1.971265 -0.0006090818     18558.56
        9194     1.000874      1.97053 -0.0006319859     18559.97
        9195     1.000749     1.970118 -0.0005737535     18560.26
        9196     1.000902     1.969308 -0.0005507086     18560.71
        9197     1.000989      1.96897 -0.0005695738     18561.67
        9198     1.001021     1.968327 -0.0005772957      18562.3
        9199     1.001184      1.96784 -0.0006627349     18564.11
        9200     1.001275     1.966999 -0.000640161     18566.13
        9201     1.001329     1.966319 -0.0007260943     18567.39
        9202      1.00129     1.965766 -0.0006407987     18567.89
        9203      1.00149     1.964935 -0.0006868565     18569.21
        9204     1.001636     1.964436 -0.0006704769     18571.06
        9205     1.001645     1.963572 -0.0006002026     18572.46
        9206     1.001623     1.963085 -0.0006126401     18573.25
        9207     1.001771     1.962535 -0.0005940138     18573.99
        9208     1.001999     1.961985 -0.0006718447      18575.8
        9209     1.002099     1.961196 -0.0007361065     18578.96
        9210     1.002073     1.960397 -0.0007993257     18581.27
        9211     1.001949      1.95959 -0.0007219795     18583.55
        9212     1.001871     1.958788 -0.000680427      18586.2
        9213     1.001871     1.958308 -0.0007197965        18588
        9214     1.002068     1.957675 -0.0006870958     18588.36
        9215     1.002281     1.956711 -0.0007852497      18589.3
        9216       1.0022      1.95604 -0.0007791693     18590.99
        9217     1.002381     1.955167 -0.0006796395     18592.41
        9218     1.002647     1.954559 -0.0006748549     18594.04
        9219     1.002499     1.953992 -0.0006540659     18594.39
        9220      1.00237      1.95334 -0.0006774712      18595.4
        9221     1.002644     1.952551 -0.0007572707     18596.39
        9222     1.002864     1.951849 -0.0007905599     18598.62
        9223     1.002771     1.950963 -0.0007502587     18600.33
        9224     1.002465     1.950178 -0.0007821528     18601.86
        9225     1.002427      1.94955 -0.0007353402      18602.8
        9226     1.002655      1.94872 -0.0007247488     18605.48
        9227      1.00271     1.948022 -0.0007370473     18607.38
        9228     1.002548     1.947279 -0.0007429993     18609.48
        9229     1.001932     1.946601 -0.0007348046     18610.86
        9230     1.001597     1.945748 -0.0007626506     18611.36
        9231     1.001484     1.945083 -0.0007645451     18611.95
        9232     1.001311     1.944228 -0.0006978355     18612.17
        9233     1.001461     1.943543 -0.0007491413     18612.94
        9234     1.001328     1.942957 -0.0006280733     18612.83
        9235     1.001002     1.942086 -0.0006451004     18612.31
        9236     1.000901     1.941716 -0.0006714583     18614.53
        9237     1.000668     1.940963 -0.0006715693     18616.12
        9238     1.000462     1.940271 -0.0007373559      18616.5
        9239     1.000558       1.9394 -0.0007533411     18617.72
        9240     1.000784     1.938767 -0.0007777752     18619.31
        9241     1.000917     1.937949 -0.0006889449     18620.41
        9242      1.00101      1.93716 -0.0006828548     18621.48
        9243     1.001076     1.936644 -0.0006495928     18622.21
        9244     1.001204     1.936035 -0.0006964889     18621.16
        9245     1.001221     1.935351 -0.000730775     18619.62
        9246     1.001173     1.934374 -0.0007376507     18618.25
        9247     1.001266     1.933721 -0.000754946     18615.38
        9248     1.001288     1.933085 -0.0007411867     18604.63
        9249     1.001646     1.932331 -0.0006675671     18560.23
        9250     1.002407     1.931409 -0.0006373482      18444.5
        9251      1.00076     1.931051 -0.0006537744     18388.85
        9252     1.000056     1.930535 -0.0006554823     18503.55
        9253     1.000977     1.929716 -0.0006551661     18561.64
        9254     1.001882     1.928787 -0.000722421     18486.41
        9255      1.00112      1.92843 -0.0006769789     18406.77
        9256     1.001025     1.927645 -0.0006241299     18501.43
        9257     1.000905     1.927008 -0.0006977195     18598.17
        9258     1.000885     1.926291 -0.0006401023     18641.63
        9259       1.0006     1.925639 -0.000646388     18651.25
        9260      1.00031     1.925085 -0.0007193607     18655.13
        9261     1.000072     1.924423 -0.0006800576     18656.96
        9262     1.000099     1.923413 -0.0006729611     18659.29
        9263     1.000329     1.922919 -0.0006381312     18662.34
        9264      1.00029     1.922393 -0.0005668236     18663.26
        9265     1.000084      1.92187 -0.0007279872     18663.97
        9266    0.9998026     1.921146 -0.0006309287     18663.19
        9267    0.9996926     1.920007 -0.0006375931     18662.82
        9268    0.9993827     1.919869 -0.0006763903     18663.83
        9269    0.9991449      1.91932 -0.0005502648     18666.16
        9270    0.9990017     1.918441 -0.0006673014     18666.91
        9271    0.9989557     1.917806 -0.0007447383     18668.05
        9272    0.9992446       1.9172 -0.0006957512     18670.33
        9273    0.9995115     1.916341 -0.0006874058     18671.86
        9274    0.9998229     1.915658 -0.0006807119     18673.25
        9275     1.000062     1.915056 -0.0006049259     18673.55
        9276    0.9999784     1.914477 -0.0006136303     18673.17
        9277     1.000031     1.913921 -0.0006106224     18674.34
        9278     1.000264     1.913203 -0.0005759138     18676.84
        9279     1.000517     1.912614 -0.0006301937     18678.78
        9280     1.000556     1.912174 -0.0006034872     18679.68
        9281     1.000549       1.9114 -0.0006614788     18680.34
        9282     1.000719     1.910789 -0.000704113     18681.17
        9283      1.00104     1.909968 -0.000621665      18681.2
        9284     1.001127     1.909357 -0.0006169834     18682.29
        9285     1.000913     1.908914 -0.0005918433     18685.02
        9286      1.00051     1.908321 -0.0005879656      18686.4
        9287    0.9999353     1.907601 -0.0006339717     18686.91
        9288    0.9993348     1.907005 -0.0006087319     18688.75
        9289    0.9989661     1.906378 -0.0005599831     18690.24
        9290    0.9990708     1.905886 -0.0005652958     18690.55
        9291     0.999127     1.905361 -0.0006015325     18690.44
        9292    0.9990617     1.904744 -0.0005985298     18691.34
        9293    0.9990493     1.903972 -0.0005974404     18692.38
        9294    0.9989021     1.903492 -0.0006566984     18693.19
        9295     0.999053     1.902971 -0.0006433862     18694.85
        9296     0.999143     1.902117 -0.0005854274      18695.8
        9297    0.9991498     1.901398 -0.000587007     18696.97
        9298    0.9991601      1.90115 -0.0004501612     18698.73
        9299      0.99932     1.900623 -0.0004665244     18700.72
        9300      0.99957     1.900317 -0.0005661446     18703.36
        9301    0.9994735     1.899532 -0.0005246955     18703.93
        9302    0.9993887     1.898886 -0.0005884493     18704.67
        9303    0.9996178     1.898524 -0.0005132202      18705.2
        9304     0.999734     1.897963 -0.0005130285     18704.73
        9305    0.9998628     1.897479 -0.0005663165     18704.32
        9306    0.9999613     1.896834 -0.0005712792     18704.48
        9307     1.000192     1.896259 -0.0005887043     18706.36
        9308     1.000408     1.895678 -0.0005920474      18707.4
        9309     1.000785     1.895124 -0.0005680232     18708.24
        9310     1.000822     1.894466 -0.0005505336     18709.27
        9311     1.000805     1.893987 -0.0005266333     18709.03
        9312     1.000967     1.893476 -0.0005743985     18709.43
        9313     1.001171     1.893018 -0.0006101969     18711.32
        9314     1.001228     1.892168 -0.0006452062     18712.24
        9315     1.001061     1.891546 -0.000646851     18712.83
        9316     1.000883     1.890895 -0.0005871862     18713.79
        9317     1.000656      1.89043 -0.000568691     18715.66
        9318     1.000625     1.889819 -0.0005523362      18719.1
        9319     1.000655     1.889271 -0.0005955382     18720.62
        9320     1.000624     1.888686 -0.0005931051     18719.91
        9321     1.000518     1.888048 -0.0006086131      18717.7
        9322     1.000706     1.887447 -0.000582782     18717.53
        9323     1.000755     1.886837 -0.0006171672     18718.28
        9324     1.000722     1.886354 -0.0006171004     18718.88
        9325     1.001117      1.88558 -0.0005522548     18720.95
        9326     1.001427     1.884978 -0.000585317      18722.9
        9327     1.001654     1.884628 -0.0005529918     18724.75
        9328     1.001695     1.884013 -0.0005608739     18725.56
        9329     1.001647     1.883368 -0.0006521177     18726.22
        9330     1.001758     1.882735 -0.0006524968     18728.36
        9331     1.002161     1.882019 -0.0005848031     18729.76
        9332     1.002599     1.881403 -0.0005959377     18729.08
        9333     1.002805     1.881028 -0.0005447199     18727.71
        9334     1.002958     1.880351 -0.000515964        18728
        9335     1.002878      1.87984 -0.0005879559     18730.65
        9336     1.002555     1.879339 -0.0005626642     18734.38
        9337     1.002207     1.878677 -0.0006607523     18736.85
        9338     1.002243       1.8781 -0.0006617247     18737.99
        9339     1.002203     1.877197 -0.000637823     18736.96
        9340     1.002338     1.876692 -0.000662829     18735.85
        9341     1.002724     1.876125 -0.0005602798     18735.87
        9342     1.003097     1.875449 -0.0005972979     18736.14
        9343     1.003172     1.874956 -0.000603956     18736.59
        9344     1.003336     1.874303 -0.000605933     18737.25
        9345     1.003399      1.87371 -0.0006035422     18737.95
        9346     1.003224     1.873025 -0.0005994973     18739.08
        9347      1.00289     1.872542 -0.0006178264     18740.25
        9348     1.002746     1.871905 -0.0005603492     18740.39
        9349     1.002637     1.871238 -0.0006193487     18739.15
        9350     1.002634     1.870784 -0.0005767618     18735.66
        9351     1.002449     1.870065 -0.0005776204     18733.17
        9352     1.002275     1.869598 -0.000618029     18735.45
        9353     1.002351     1.868928 -0.0005637139     18737.88
        9354     1.002561     1.868312 -0.0006825132     18739.44
        9355     1.002645      1.86781 -0.0006790119     18741.52
        9356     1.002737     1.866868 -0.0006200259     18745.18
        9357     1.003007     1.866212 -0.0006487982     18749.29
        9358     1.003174     1.865832 -0.0005198428     18750.66
        9359     1.003098     1.865215 -0.0005056485     18750.12
        9360     1.002825     1.864789 -0.0006294724     18748.54
        9361     1.002533     1.864189 -0.000682588     18746.19
        9362     1.002276     1.863314 -0.0006680392     18743.81
        9363     1.002317     1.862484 -0.0007037215      18744.9
        9364     1.002409     1.862117 -0.0006295753     18746.82
        9365     1.002363     1.861374 -0.0004961157     18747.62
        9366     1.002048     1.860796 -0.0006583662     18748.18
        9367     1.002019       1.8605 -0.0005953129     18751.77
        9368     1.001927     1.859483 -0.0006009525     18756.34
        9369     1.001699     1.858993 -0.0005726414     18758.51
        9370     1.001757     1.858392 -0.0004870046     18759.12
        9371     1.001644     1.858209 -0.000555159     18760.84
        9372     1.001239     1.857535 -0.0005590747     18762.16
        9373     1.000664     1.856772 -0.0006850126     18762.01
        9374     1.000472     1.856155 -0.0006592331     18761.77
        9375     1.000451     1.855469 -0.0005729381     18760.63
        9376     1.000596     1.854898 -0.0005596701     18760.32
        9377     1.000642     1.854481 -0.0005406998     18761.38
        9378     1.000995     1.853917 -0.0006083477     18763.23
        9379     1.001343     1.853306 -0.0006214341     18765.03
        9380     1.001669     1.852465 -0.0006318739     18765.56
        9381     1.001922     1.851995 -0.0006739251     18765.75
        9382     1.002054     1.851389 -0.0006331995     18766.41
        9383     1.002032     1.850611 -0.0006939959     18767.29
        9384     1.001856     1.849932 -0.0006156027     18768.78
        9385     1.001582     1.849219 -0.0006043327     18770.86
        9386     1.001471     1.848927 -0.0005717637     18771.55
        9387     1.001426     1.848193 -0.0005137076     18771.59
        9388     1.001451     1.847645 -0.0006331646     18772.34
        9389     1.001518     1.847164 -0.0005968941     18772.67
        9390     1.001523     1.846394 -0.0006066135        18772
        9391     1.001361     1.845806 -0.0006456721     18771.24
        9392     1.000995     1.845219 -0.0005928294     18768.95
        9393     1.001021     1.844581 -0.0006358273     18768.83
        9394      1.00098     1.844023 -0.0006624979     18769.56
        9395     1.000691     1.843262 -0.0006291262     18770.29
        9396      1.00026     1.842569 -0.0006819538      18771.1
        9397    0.9998288     1.842065 -0.0005954166     18771.41
        9398    0.9998273     1.841295 -0.0005569979     18772.42
        9399    0.9998782     1.840881 -0.0006242728     18774.09
        9400     0.999921     1.840341 -0.0005645562     18774.29
        9401     1.000121     1.839568 -0.0005936312     18774.36
        9402            1     1.839037 -0.0005413572     18773.66
        9403    0.9998595     1.838506 -0.0005830387     18775.53
        9404    0.9998554     1.838175 -0.0005823187     18776.89
        9405      1.00001     1.837236 -0.0006399998     18777.67
        9406     1.000359     1.836708 -0.0006822238     18779.29
        9407     1.000819     1.835946 -0.000586196     18779.44
        9408     1.001011     1.835446 -0.0005789324     18778.66
        9409     1.001254     1.834891 -0.0005715308     18779.03
        9410     1.001187     1.834392 -0.0006363513     18780.37
        9411     1.001243      1.83366 -0.0006495242     18781.35
        9412     1.001033     1.832901 -0.0006666191      18781.5
        9413     1.000932     1.832293 -0.0006442732     18782.94
        9414     1.000805     1.831725 -0.000579369     18784.04
        9415     1.000574     1.831083 -0.0005942366     18784.02
        9416     1.000241     1.830583 -0.0006358031     18784.55
        9417     1.000054     1.829916 -0.0006047743     18783.28
        9418    0.9999171     1.829182 -0.0006258708     18781.83
        9419    0.9998186     1.828664 -0.0006657833     18781.24
        9420    0.9994877      1.82808 -0.0006589771     18780.45
        9421    0.9995115     1.827253 -0.0006097281     18780.49
        9422    0.9995093     1.826546 -0.000642813     18779.37
        9423    0.9993604     1.826225 -0.0005791985     18778.21
        9424    0.9992444     1.825509 -0.0005764293     18778.98
        9425    0.9988483     1.824936 -0.0006556025     18779.02
        9426    0.9985174     1.824241 -0.0006075789     18778.78
        9427    0.9981887     1.823603 -0.0006443563     18779.75
        9428    0.9977229     1.823078 -0.0006304439     18779.54
        9429    0.9975032     1.822358 -0.0005500162     18777.85
        9430    0.9972386     1.821719 -0.0006405669     18778.06
        9431    0.9970724     1.821403 -0.0006035781     18778.84
        9432    0.9970759     1.820516 -0.0005629401     18779.53
        9433    0.9970602     1.819944 -0.0006239121     18780.01
        9434    0.9970872     1.819467 -0.0005674178     18780.52
        9435    0.9972033     1.818907 -0.0006094937     18780.29
        9436     0.997322     1.818246 -0.0007116926     18779.97
        9437    0.9974374     1.817506 -0.0006213322     18780.03
        9438    0.9976751      1.81662 -0.0006167034     18779.69
        9439    0.9978227     1.816422 -0.0006280173     18779.94
        9440    0.9979263      1.81578 -0.0005530595     18779.85
        9441    0.9979714     1.814994 -0.0006347847     18779.46
        9442    0.9981872     1.814408 -0.0006176636      18779.1
        9443    0.9985675     1.813882 -0.0005687787      18778.5
        9444    0.9987277     1.813309 -0.0005253966     18778.01
        9445    0.9988589     1.812719 -0.0006052254     18777.37
        9446    0.9987779     1.812306 -0.0006133752     18777.59
        9447     0.998776     1.811462 -0.000622124     18778.96
        9448    0.9986018     1.810855 -0.0005918232     18779.07
        9449    0.9985812      1.81023 -0.0005719326     18779.64
        9450      0.99873     1.809939 -0.0005333446      18778.4
        9451    0.9988074     1.809174 -0.0005216114     18777.91
        9452    0.9987559     1.808722 -0.0006002296     18777.76
        9453    0.9986842     1.808144 -0.0005714111     18776.67
        9454    0.9988037     1.807538 -0.0006035401     18776.61
        9455    0.9990723     1.806888 -0.0006537708     18776.83
        9456    0.9992357     1.806308 -0.0006560472     18776.78
        9457    0.9994383     1.805529 -0.000608891     18774.89
        9458    0.9995759     1.804914 -0.0005775298     18773.68
        9459    0.9996948     1.804453 -0.0005619143     18773.43
        9460    0.9995792     1.803998 -0.0005732608     18774.09
        9461    0.9995745     1.803281 -0.0005767369     18774.88
        9462    0.9997215     1.802621 -0.0005518152     18776.86
        9463    0.9996479     1.802146 -0.000532335     18777.49
        9464    0.9993521      1.80179 -0.0005131997     18778.02
        9465    0.9993047     1.801152 -0.0005611791     18779.33
        9466    0.9989717     1.800568 -0.000582216     18779.88
        9467    0.9988903     1.799901 -0.0005790037     18780.71
        9468    0.9985429     1.799462 -0.0005536106      18780.5
        9469    0.9982321     1.798836 -0.0005058174      18779.9
        9470    0.9981933     1.798354 -0.0005582609      18779.2
        9471    0.9983015     1.797878 -0.0005362003     18778.72
        9472    0.9981676     1.797229 -0.0005644691     18777.19
        9473    0.9977864     1.796691 -0.0006226977     18776.23
        9474    0.9974943     1.796096 -0.0005551628     18775.54
        9475    0.9972564     1.795387 -0.0005499594     18774.03
        9476    0.9969328     1.795008 -0.000571813     18772.79
        9477    0.9967968     1.794491 -0.0005288172     18773.03
        9478    0.9970248     1.793809 -0.0005687528     18773.29
        9479    0.9972292     1.793272 -0.0005365727     18772.95
        9480    0.9975132     1.792733 -0.0004886738     18772.82
        9481    0.9974535     1.792345 -0.0005427257     18772.87
        9482    0.9972795     1.791854 -0.0005213753     18770.94
        9483    0.9972633     1.791101 -0.0005957595     18767.45
        9484    0.9973554     1.790647 -0.0006079755     18757.94
        9485    0.9972445     1.789962 -0.0005673984     18738.75
        9486    0.9969825     1.789422 -0.0006049415     18730.47
        9487    0.9970304     1.788831 -0.0005255883     18737.49
        9488    0.9968807     1.788228 -0.0005384599      18746.8
        9489    0.9968043      1.78786 -0.0005340662     18754.89
        9490    0.9968068     1.787268 -0.0005097116     18756.83
        9491     0.996691     1.786695 -0.0005647436     18746.25
        9492    0.9966182     1.786189 -0.0005726735     18729.84
        9493    0.9967085     1.785601 -0.000529939     18727.81
        9494      0.99684     1.784977 -0.000590874     18735.19
        9495    0.9966665     1.784575 -0.0006074184     18746.39
        9496     0.996553     1.783825 -0.0005607463     18754.97
        9497    0.9962911     1.783171 -0.0005778072     18756.31
        9498    0.9960398     1.782734 -0.0005946148     18755.45
        9499    0.9958432     1.782264 -0.0006508167     18754.56
        9500    0.9958432     1.782264 -0.0006508167     18754.56
