# This file has been produced by extranormal (v 1.0.1 - February 23, 2017)
# O. Roudenko - Synchrotron SOLEIL. Covered by GPL licence.
#Data from HDF File: /nfs/ruche-rock/rock-soleil/com-rock/2022/Projets/20220725_Gilles/op2_cell3_cell4/op2_cell4_pos1_dq1/op2_cell4_pos1_dq1_0038/op2_cell4_pos1_dq1_0038_03970.nxs to op2_cell4_pos1_dq1_0038_03993.nxs
#Time at start=2022-07-27 06:05:39.950
#Time from start (seconds)=65.0406366266
#Sample temperature (C)=nan
# Normalization -------------
# pivot spectrum: LNO_pristine_av1100_00001.txt
# E0=8332.88   Eshift=-0.418213322799
# E0_pivot = 8349.6
# pre-edge params: from E0_pivot-240.0 to E0_pivot-50.0
# pre-edge range: [8109.6, 8299.6]
# post-edge params: from E0_pivot+70.0 to E0_pivot+1155.0
# post-edge range: [8419.6, 9500.0]
# I jump at E0_pivot = 0.800313233377
# shifted energy	normalized	reference	ref.derivative	I0
        8060  0.001266172     1.038461 -0.000454038      14939.7
        8065  0.001089302     1.036186 -0.0004651087     14960.39
        8070 0.0009170761     1.033795 -0.000450335     14984.95
        8075 5.181982e-05     1.031536 -0.0004532707     15009.33
        8080 0.0008857287     1.029455 -0.0004503585     15030.34
        8085  0.001053283      1.02712 -0.0004516937     15049.47
        8090 0.0004383304     1.024788  -0.00045487      15071.7
        8095  0.000352211     1.022502 -0.0004505591     15095.85
        8100 0.0003590809     1.020357 -0.000444454     15117.61
        8105 0.0003434093     1.018109 -0.0004357014     15140.09
        8110 -0.0003303181     1.015899 -0.0004250523      15159.8
        8115 0.0007887455     1.013788 -0.0004250837     15178.77
        8120 0.0004962438     1.011856 -0.0004222851     15199.42
        8125 -0.0004207133     1.009607 -0.0004187716      15221.1
        8130 -3.152553e-05     1.007453 -0.0004213626     15242.88
        8135 0.0007483897     1.005412 -0.0004088379     15263.55
        8140   0.00111905     1.003429 -0.0004096049     15283.14
        8145 -9.90889e-05     1.001431 -0.000407703     15304.76
        8150 0.0001714875    0.9992614 -0.0004198937     15322.76
        8155 0.0002500337    0.9972582 -0.0004156713     15345.53
        8160 0.0005737411    0.9950311 -0.0004196964     15364.74
        8165  0.001236487    0.9931171 -0.0004268207     15392.13
        8170  0.000770518    0.9908674 -0.0004239365      15410.4
        8175 0.0001202467    0.9887218 -0.0004305458     15433.69
        8180 0.0009127904    0.9865524 -0.0004228345     15452.75
        8185 -0.0009857191    0.9845062 -0.0004239748     15472.49
        8190 -0.0009070416    0.9824108 -0.0004146049     15495.54
        8195 -0.0009827643    0.9802423 -0.0004111381     15517.35
        8200 -0.0003688076    0.9782603 -0.000411878      15534.4
        8205 -0.001532857    0.9762834 -0.0004111797     15557.89
        8210 -0.001825929    0.9741732 -0.000417435     15574.36
        8215 -0.001434523    0.9720187 -0.000416337      15595.7
        8220 -0.001391664    0.9699116 -0.0004053625     15618.22
        8225 -0.0008478976    0.9679567 -0.000399657     15639.63
        8230 0.0002188941    0.9660659 -0.0003969297     15660.37
        8235 -0.0009210751    0.9640256 -0.0003935643     15677.66
        8240 -0.000676506     0.961973 -0.0003906705     15699.98
        8245 0.0005647679    0.9600854 -0.0003745364     15720.53
        8250 0.0003634399    0.9582525 -0.0003655448     15739.28
        8255 -0.0004229675    0.9565349 -0.0003599265     15757.39
        8260 6.890576e-05    0.9546621 -0.0003525019     15777.28
        8265 0.0004885321    0.9528869 -0.000353104     15797.84
        8270  0.001886564    0.9512025 -0.0003479956      15819.6
        8275 0.0004817398    0.9494728 -0.0003327627     15835.61
        8280 6.628324e-05    0.9477022 -0.0003310834     15854.68
        8285 0.0004250624    0.9462316 -0.0003118401     15867.38
        8290 0.0007779207    0.9445808 -0.0002881624     15880.49
        8295  0.001049318     0.943236 -0.0002847257      15888.5
        8300  0.004697629    0.9419141 -0.0001494627     15821.81
      8300.2  0.004798404     0.941919 -7.526313e-05     15811.24
      8300.4  0.004760097    0.9419341 9.267341e-05     15801.04
      8300.6  0.004790234    0.9419501 0.0001639667     15793.04
      8300.8  0.004662377    0.9419883 0.0001138085     15786.41
        8301  0.004648615    0.9420501 8.305227e-05     15781.48
      8301.2  0.004713844    0.9420251 -2.764284e-05     15778.98
      8301.4  0.004744082    0.9420165 -0.000341733     15777.66
      8301.6   0.00466658    0.9419661 -0.0003023768     15776.43
      8301.8  0.004603152    0.9417767  -0.00046126     15776.13
        8302  0.004501089    0.9417832 -0.0007504833     15775.89
      8302.2  0.004483389    0.9416475 -0.0005945923     15775.47
      8302.4  0.004488863    0.9413658 -0.0007668689     15774.93
      8302.6  0.004549416    0.9413011 -0.0005443503     15773.78
      8302.8  0.004534714    0.9411697 -0.0002345686     15770.99
        8303   0.00451987     0.941212 -0.0001260418     15767.68
      8303.2  0.004511538    0.9411781 -2.025397e-06     15763.49
      8303.4  0.004621428    0.9412002 -6.354727e-06     15758.36
      8303.6   0.00469123    0.9411681 0.0001649464     15751.27
      8303.8    0.0047535     0.941207 0.0001167465     15741.79
        8304  0.004878184    0.9413101 8.489939e-05     15729.32
      8304.2  0.005236821    0.9412936 -0.0001309896      15713.9
      8304.4  0.005584286     0.941236 -0.0004983239      15693.8
      8304.6  0.005948223    0.9411022 -0.0006584394     15666.66
      8304.8  0.006508199    0.9409114 -0.0008147546     15631.41
        8305  0.007153607    0.9407669 -0.0008183251      15585.9
      8305.2  0.007838741    0.9405842 -0.0007104284     15529.17
      8305.4  0.008516843    0.9404475 -0.0005782024     15459.09
      8305.6  0.009016507    0.9403431 -0.0002082779     15381.19
      8305.8   0.00910843    0.9403043 0.0001232627     15301.43
        8306  0.008902519    0.9404176 0.0004852955     15227.96
      8306.2  0.008343605    0.9405461 0.0007472491     15167.59
      8306.4  0.007595084    0.9407313 0.0007378925     15123.83
      8306.6  0.006659766    0.9409021 0.0006949953     15099.39
      8306.8  0.005850486    0.9410079 0.0006687648     15100.19
        8307  0.005102371    0.9411021 0.0003541852     15120.14
      8307.2  0.004502095    0.9412663 0.0004222697     15153.91
      8307.4  0.004136196    0.9411855 0.0004424344     15197.17
      8307.6  0.003687484    0.9413457 0.0003812281     15248.45
      8307.8  0.003365761    0.9414561 0.0005945693     15304.09
        8308  0.003033382    0.9415713 0.0005087902     15362.95
      8308.2  0.002765786    0.9416611 0.0004189962     15422.34
      8308.4  0.002618056    0.9417528 0.0002037028     15484.98
      8308.6   0.00249532    0.9417913 9.044121e-06     15548.39
      8308.8  0.002597907    0.9417343 -0.0003468466      15613.9
        8309   0.00274348    0.9416684 -0.0005696421     15672.33
      8309.2   0.00311989    0.9414753 -0.0007753347     15723.66
      8309.4  0.003561834    0.9413355 -0.0008557992     15763.77
      8309.6  0.004169418     0.941114 -0.0007552917      15790.7
      8309.8  0.004779725    0.9409837 -0.0005607949     15804.75
        8310  0.005242315     0.940871 -0.0003275649     15807.68
      8310.2  0.005503498    0.9408869 -0.000161223     15802.22
      8310.4  0.005475736    0.9408519 0.0001109318     15794.14
      8310.6  0.005584402    0.9408547 -0.0001051796     15788.45
      8310.8   0.00549229    0.9409598 -0.0001807563      15785.3
        8311  0.005338289    0.9408028 -0.0003586369     15786.62
      8311.2  0.005204792    0.9407073 -0.0005014499     15792.62
      8311.4  0.005319195    0.9405678 -0.0002428324     15800.19
      8311.6  0.005795428    0.9405586 -5.910129e-05     15803.35
      8311.8  0.006159748    0.9406085 0.0002401713     15797.33
        8312  0.006373929    0.9406601  0.000302496     15785.48
      8312.2  0.006496571      0.94076 0.0004141316     15770.77
      8312.4  0.006630972    0.9408006 0.0003798583      15757.5
      8312.6  0.006575255    0.9409398 0.0003026398     15744.34
      8312.8  0.006423008    0.9409639 0.0001997962     15733.82
        8313  0.006533565    0.9410021 -0.0001320331     15728.07
      8313.2  0.006907934    0.9409605 -0.0003716644     15717.94
      8313.4  0.007566285    0.9408342 -0.0006789439     15698.06
      8313.6  0.008424825    0.9406666 -0.0008780078     15663.69
      8313.8  0.009306562    0.9404589 -0.0007745013     15609.33
        8314   0.01014571    0.9402581 -0.0005472771      15539.7
      8314.2   0.01075953    0.9402146 1.337463e-05     15457.75
      8314.4   0.01107511    0.9402288 0.0005360173     15371.08
      8314.6    0.0109817    0.9404696 0.0009777412     15293.17
      8314.8   0.01071199    0.9406869  0.001451384     15228.94
        8315    0.0100435    0.9409968  0.001518227     15182.92
      8315.2   0.00935801    0.9413899  0.001533609     15163.29
      8315.4  0.008727428    0.9416842  0.001451507     15165.47
      8315.6  0.008257276    0.9419138  0.001059509     15187.81
      8315.8  0.008002655     0.942158 0.0007337592     15224.06
        8316  0.007955033    0.9422375 0.0005622815     15266.21
      8316.2  0.008045055    0.9422712 0.0003581828      15310.8
      8316.4  0.008088225    0.9423636 0.0004492158     15354.28
      8316.6  0.007891344    0.9424445 0.0005891351     15396.03
      8316.8  0.007701934    0.9425969 0.0006896332     15438.27
        8317  0.007408734    0.9427425 0.0007781001     15480.94
      8317.2  0.007222337    0.9429153 0.0007221183     15524.92
      8317.4  0.007101155     0.943067 0.0005979861     15569.01
      8317.6  0.007076889    0.9431746 0.0003840791     15612.31
      8317.8  0.006942545    0.9432209 0.0002204031     15654.48
        8318  0.007018246    0.9432226 0.0001123382     15694.84
      8318.2  0.007074435    0.9432433 4.083769e-05     15731.49
      8318.4  0.007257901    0.9432644 0.0001368224     15763.21
      8318.6  0.007523781    0.9432536 0.0001044684     15790.03
      8318.8  0.007574419     0.943332 0.0001357473     15812.11
        8319   0.00753423    0.9433269 0.0002443403     15830.78
      8319.2  0.007648211     0.943373 0.0003375953     15846.65
      8319.4  0.007715873    0.9434491  0.000657098     15860.18
      8319.6  0.007716523    0.9436021 0.0007208193     15871.33
      8319.8  0.007771603    0.9438526 0.0008238127     15881.19
        8320  0.007897693    0.9439497 0.0008567502      15890.8
      8320.2  0.007963058    0.9441081 0.0007162035     15898.89
      8320.4  0.007962546    0.9442875 0.0007372515     15905.92
      8320.6  0.008032431    0.9444255 0.0006843032     15912.08
      8320.8  0.008054253    0.9445395 0.0007356425      15917.4
        8321  0.008198411    0.9446555 0.0008972087     15923.09
      8321.2    0.0083142     0.944876  0.001190022     15927.79
      8321.4  0.008420554    0.9451433  0.001332849     15933.07
      8321.6  0.008464873    0.9454915  0.001447105     15937.89
      8321.8  0.008502565    0.9457218  0.001406089     15942.53
        8322   0.00863427    0.9460337  0.001276159     15947.93
      8322.2  0.008733901    0.9462682  0.001193523     15953.29
      8322.4  0.008811892    0.9465124  0.001148321     15958.38
      8322.6  0.008917109    0.9466766  0.001310749     15963.79
      8322.8  0.008998989    0.9469523  0.001489264     15970.28
        8323   0.00908816    0.9473168  0.001719182     15977.35
      8323.2  0.009167832    0.9477038  0.001763196     15984.46
      8323.4  0.009436781     0.948052  0.001748562     15992.99
      8323.6  0.009600478    0.9483629  0.001781963      16000.9
      8323.8  0.009622714    0.9487156  0.001882167     16007.54
        8324  0.009826346    0.9491294  0.002032457     16015.28
      8324.2  0.009904442    0.9495577  0.001950481     16021.54
      8324.4   0.01008005    0.9499889  0.001928954     16027.33
      8324.6   0.01021121     0.950276  0.001982021     16031.41
      8324.8    0.0103909    0.9506726  0.002129065     16035.09
        8325    0.0104941    0.9511433  0.002419252     16037.59
      8325.2   0.01065372    0.9516921  0.002601284     16040.08
      8325.4   0.01090715    0.9522114  0.002803123     16042.43
      8325.6    0.0110679    0.9527536  0.002940892     16044.15
      8325.8   0.01116055    0.9533858  0.003324392     16045.11
        8326    0.0112707    0.9540448  0.003633204     16046.17
      8326.2   0.01143872    0.9548709  0.003940774     16047.43
      8326.4   0.01170201    0.9556602  0.004231229     16048.73
      8326.6   0.01188298    0.9565385   0.00440453     16049.74
      8326.8   0.01220193    0.9574298   0.00463511     16050.83
        8327   0.01254737    0.9583946  0.004974538     16052.18
      8327.2   0.01286271    0.9593683  0.005225657     16053.39
      8327.4   0.01310462    0.9605181  0.005437803     16054.42
      8327.6   0.01339881    0.9616103  0.005877266     16055.69
      8327.8   0.01369335    0.9627448  0.006387696     16056.83
        8328    0.0139159    0.9640701  0.006941229     16057.69
      8328.2   0.01407447    0.9656282  0.007562939     16058.44
      8328.4   0.01425977    0.9671633  0.007899565     16059.13
      8328.6   0.01450434    0.9687951  0.008311221     16060.46
      8328.8   0.01476412    0.9703897  0.008985909     16061.57
        8329   0.01494553    0.9722772   0.01006433     16062.19
      8329.2   0.01520391     0.974352   0.01134117     16062.79
      8329.4   0.01546476    0.9768466   0.01270029     16063.69
      8329.6   0.01578377    0.9794627   0.01424036     16064.95
      8329.8   0.01603622    0.9824374   0.01611734     16065.49
        8330   0.01648432    0.9857443   0.01878388     16067.36
      8330.2   0.01679799    0.9897405   0.02214778     16067.72
      8330.4   0.01715448    0.9944898   0.02620337     16068.68
      8330.6   0.01753053     1.000156   0.03090571     16069.64
      8330.8   0.01796625     1.006707   0.03658091     16069.83
        8331   0.01848688     1.014465   0.04420161     16070.27
      8331.2   0.01916746     1.023754    0.0539846     16071.05
      8331.4    0.0198944     1.035517   0.06531105     16071.85
      8331.6    0.0208457     1.049895   0.07800996     16072.82
      8331.8   0.02182348     1.066714   0.09152809     16073.08
        8332   0.02300989     1.086162    0.1047898      16073.9
      8332.2   0.02439823     1.108739    0.1177922     16074.28
      8332.4   0.02596493     1.133727    0.1293454     16074.16
      8332.6   0.02775248     1.160948    0.1378906     16074.22
      8332.8   0.02991593     1.189639    0.1440159     16074.19
        8333   0.03222716     1.219052    0.1478276     16074.04
      8333.2   0.03475677     1.248939    0.1481899      16073.5
      8333.4   0.03765539      1.27921    0.1467017      16073.5
      8333.6   0.04058346     1.308191    0.1437757     16073.56
      8333.8   0.04345734     1.336413    0.1391556     16073.09
        8334   0.04642249      1.36396    0.1342249     16073.66
      8334.2   0.04898889     1.390534    0.1284927     16072.85
      8334.4   0.05127245     1.415571    0.1207777     16072.69
      8334.6   0.05312235     1.439207    0.1121355     16073.04
      8334.8   0.05430629     1.460582    0.1036284     16072.28
        8335   0.05501099     1.480243    0.0949998     16072.47
      8335.2   0.05518941     1.498473    0.0871225     16072.36
      8335.4   0.05486699     1.515207   0.07909492     16072.12
      8335.6   0.05451316      1.53028   0.07109877     16073.03
      8335.8   0.05406103     1.543519   0.06329841     16073.66
        8336   0.05364349     1.555352    0.0568853      16074.2
      8336.2   0.05344628     1.565846   0.05197464     16074.79
      8336.4   0.05341521     1.575788   0.04787366     16075.52
      8336.6   0.05351683     1.585098   0.04482917     16076.48
      8336.8   0.05386569     1.593651   0.04221897     16077.49
        8337   0.05444165     1.601709   0.04054734     16078.85
      8337.2   0.05511747     1.609563   0.04072287     16079.61
      8337.4   0.05607379     1.617536   0.04206443      16080.3
      8337.6    0.0573224      1.62623   0.04447869     16081.62
      8337.8   0.05867619     1.635361   0.04804226     16082.82
        8338   0.06017189     1.645146    0.0513542     16084.39
      8338.2    0.0618068      1.65597    0.0550737     16085.46
      8338.4   0.06355998     1.667313   0.05840702     16086.48
      8338.6   0.06554347      1.67942    0.0610127     16087.47
      8338.8   0.06785426     1.691872   0.06312638     16088.75
        8339   0.07036176      1.70478   0.06419163     16089.97
      8339.2   0.07305828     1.717814    0.0647735     16091.12
      8339.4   0.07586509     1.730773   0.06415351      16091.1
      8339.6   0.07905107     1.743691   0.06305183     16091.98
      8339.8   0.08247074     1.756103   0.06140741     16092.75
        8340   0.08617292     1.768256   0.05970267     16093.66
      8340.2   0.09008771     1.779899   0.05837761      16093.9
      8340.4   0.09474558     1.791453   0.05728134     16094.79
      8340.6    0.0998815     1.802805   0.05647108     16095.67
      8340.8    0.1053813     1.814081   0.05645634     16095.42
        8341    0.1114611     1.825076   0.05707484     16095.84
      8341.2     0.118251     1.836618    0.0587042     16096.37
      8341.4    0.1256854     1.848465   0.06195723      16097.3
      8341.6    0.1342279     1.861044   0.06522617     16097.39
      8341.8     0.144065     1.874642   0.06897787     16097.32
        8342    0.1547791     1.888799   0.07285004     16098.02
      8342.2    0.1664492     1.903647   0.07690464     16098.41
      8342.4    0.1792714     1.919324   0.08197656     16099.52
      8342.6    0.1933579     1.936165   0.08744794     16100.48
      8342.8    0.2087584      1.95438   0.09296632      16101.6
        8343    0.2253304     1.973605   0.09817923     16102.42
      8343.2    0.2425758     1.993697    0.1025716     16103.03
      8343.4    0.2605387     2.014709    0.1066884      16103.7
      8343.6    0.2789299     2.036438    0.1104899     16103.78
      8343.8    0.2980212     2.058956    0.1138054     16105.15
        8344    0.3172284     2.082089    0.1171743     16105.43
      8344.2    0.3366067     2.105753    0.1201886      16105.9
      8344.4    0.3562979     2.130177    0.1230926      16106.4
      8344.6    0.3759997     2.155107    0.1256207      16106.2
      8344.8    0.3959314     2.180563    0.1270469     16106.79
        8345    0.4156788      2.20625    0.1289801     16106.34
      8345.2     0.435403     2.231814    0.1310839     16107.17
      8345.4    0.4557864     2.258291    0.1326985     16108.54
      8345.6    0.4766319      2.28543    0.1342764     16109.17
      8345.8    0.4975506     2.312408    0.1344393     16110.15
        8346    0.5186818     2.339236    0.1330638     16110.97
      8346.2    0.5402315     2.365843    0.1317377     16112.35
      8346.4    0.5618699     2.391881    0.1305027     16112.73
      8346.6    0.5844351     2.417799    0.1288634     16113.82
      8346.8     0.607637     2.443638    0.1262091     16114.85
        8347    0.6315843     2.468933    0.1218666     16115.72
      8347.2    0.6554661     2.492848     0.115781     16116.87
      8347.4    0.6795144     2.515292    0.1093993     16117.98
      8347.6    0.7037715     2.536263    0.1024262     16118.67
      8347.8    0.7293586     2.556453   0.09570726     16118.76
        8348    0.7551237     2.574789   0.08744083     16119.26
      8348.2    0.7811088     2.591858   0.07814644     16118.89
      8348.4    0.8066214     2.606215   0.06898584     16119.57
      8348.6    0.8318529      2.61897   0.05946295     16119.84
      8348.8     0.857141     2.629978   0.05081282     16119.61
        8349    0.8831228     2.639428   0.04255362     16119.07
      8349.2    0.9091491     2.646865   0.03540712     16119.56
      8349.4    0.9352687     2.653013   0.02686761     16119.06
      8349.6    0.9613536     2.658304   0.02003955      16118.5
      8349.8    0.9881694     2.660922   0.01458106      16118.5
        8350     1.015424     2.662897  0.008411979     16118.22
      8350.2     1.043247     2.664678  0.004457607      16118.5
      8350.4     1.072062     2.665033  0.001122306      16118.6
      8350.6     1.101334     2.664488 -0.003343493     16118.74
      8350.8     1.131497     2.663795 -0.005579507     16119.39
        8351     1.162632     2.662003 -0.007774321     16119.84
      8351.2       1.1935      2.66057   -0.0106791     16119.92
      8351.4     1.224671     2.658269  -0.01270713     16120.53
      8351.6     1.255661     2.655252  -0.01454284     16120.11
      8351.8     1.288127     2.651837  -0.01574386     16121.06
        8352     1.320474     2.648936  -0.01658383     16121.02
      8352.2     1.352616     2.645674  -0.01534606     16120.97
      8352.4     1.383096     2.641985  -0.01478746     16120.87
      8352.6     1.412749      2.63956  -0.01351549     16121.15
      8352.8     1.441869     2.637106   -0.0112093      16121.4
        8353     1.470248     2.634861 -0.009548849      16121.5
      8353.2     1.496403     2.633017 -0.006941277     16121.11
      8353.4     1.520465     2.631921 -0.004021801     16121.77
      8353.6     1.541033     2.631553 0.0004354148     16122.55
      8353.8     1.557517     2.631644  0.004642587     16122.79
        8354     1.570206     2.633365  0.009543785     16123.39
      8354.2     1.578539     2.635635   0.01473646     16123.83
      8354.4     1.580975     2.639188    0.0193205     16123.84
      8354.6     1.578167     2.643433   0.02430787     16125.09
      8354.8     1.570297     2.648822   0.02833809     16126.14
        8355     1.557228     2.655082   0.03181703     16127.07
      8355.2     1.539577     2.661858   0.03389691     16127.95
      8355.4      1.51827     2.668887   0.03659446     16128.59
      8355.6     1.493881     2.675939    0.0385845     16129.19
      8355.8     1.466787     2.684357   0.03891839     16130.16
        8356     1.437848     2.692726   0.04111436     16130.68
      8356.2     1.407727     2.700021   0.04054877     16131.94
      8356.4     1.377237     2.708831   0.03958031     16132.77
      8356.6     1.346871     2.716796   0.03790575      16133.6
      8356.8      1.31718      2.72439   0.03415562     16134.27
        8357     1.288409     2.730346   0.03028543     16135.73
      8357.2     1.260458     2.736155   0.02630083     16136.31
      8357.4     1.234588     2.741024    0.0213292     16137.08
      8357.6     1.210863     2.745431   0.01681866     16137.28
      8357.8     1.189693     2.747409    0.0123263     16138.78
        8358     1.169749      2.74961  0.005978589     16139.75
      8358.2     1.151499     2.750886  0.002246897     16140.99
      8358.4     1.135257     2.750213 -0.003070016     16142.16
      8358.6     1.121218     2.749207 -0.007103746     16142.57
      8358.8     1.108855     2.747154  -0.01072969     16143.26
        8359     1.097894     2.745203  -0.01449065     16143.88
      8359.2     1.088136      2.74163   -0.0168375     16144.05
      8359.4     1.079676     2.737614  -0.01950478     16145.14
      8359.6     1.072439     2.733684  -0.02049757     16146.39
      8359.8     1.066498     2.729599  -0.02050385     16146.43
        8360      1.06141     2.725232  -0.02103909     16147.31
      8360.2     1.056964     2.721211  -0.02146348     16147.97
      8360.4     1.052973     2.716853  -0.02147885     16148.79
      8360.6     1.049565     2.712428   -0.0217724      16149.3
      8360.8     1.046672     2.708049  -0.02046081     16150.39
        8361      1.04396     2.703793  -0.01907164     16151.27
      8361.2     1.041564     2.700484  -0.01789311     16151.74
      8361.4      1.03932     2.697171   -0.0164967     16152.74
      8361.6     1.037096     2.693734  -0.01652681     16153.66
      8361.8     1.035009     2.690596  -0.01682516     16154.24
        8362     1.032989     2.687263  -0.01693245     16155.33
      8362.2     1.030925      2.68371  -0.01749281     16155.81
      8362.4     1.028974     2.680188  -0.01806078     16156.89
      8362.6     1.027115     2.676602  -0.01808104     16157.83
      8362.8     1.025192     2.672814  -0.01840687     16158.65
        8363     1.023341     2.669246  -0.01913196      16159.4
      8363.2     1.021549     2.665463  -0.02006043     16161.04
      8363.4     1.019629     2.661296   -0.0215277     16161.93
      8363.6     1.017663     2.656766  -0.02228124      16162.9
      8363.8     1.015847     2.652023  -0.02286167     16163.68
        8364      1.01415     2.647638  -0.02433782     16164.41
      8364.2     1.012555     2.643007  -0.02472665     16165.49
      8364.4     1.011223     2.637296  -0.02518971     16166.77
      8364.6     1.010031     2.632242  -0.02512956      16167.8
      8364.8     1.009176     2.627486  -0.02383624     16168.99
        8365     1.008656     2.622903  -0.02301145        16170
      8365.2     1.008456     2.618227  -0.02238635     16170.94
      8365.4     1.008552     2.613833  -0.02136051      16171.7
      8365.6     1.008919     2.609577   -0.0202019      16172.4
      8365.8     1.009731     2.605815  -0.01885403     16173.54
        8366     1.010972     2.602065  -0.01700868     16174.93
      8366.2     1.012467      2.59875  -0.01525773     16176.53
      8366.4      1.01422      2.59597  -0.01336075     16177.76
      8366.6     1.016389     2.593609  -0.01264135     16178.72
      8366.8     1.018752     2.591377  -0.01108991     16179.91
        8367     1.021306     2.588637    -0.010372     16180.49
      8367.2     1.024155     2.587098 -0.008865241     16181.68
      8367.4     1.027147     2.585311 -0.007358416     16182.64
      8367.6       1.0302     2.584284 -0.006636473     16183.84
      8367.8     1.033348      2.58275 -0.005747756     16184.83
        8368     1.036302     2.581789 -0.005664155     16185.68
      8368.2     1.039184     2.580713 -0.005554759     16186.28
      8368.4     1.042014     2.579753 -0.005476803     16187.47
      8368.6     1.044704     2.578306 -0.004464091     16189.03
      8368.8     1.046964     2.577407 -0.004125697     16190.29
        8369     1.048822     2.577141 -0.003187775     16191.95
      8369.2       1.0501     2.576453 -0.002004726     16192.43
      8369.4     1.051001     2.575756 -0.002614347     16193.38
      8369.6     1.051334     2.575803 -0.001853731      16194.1
      8369.8     1.051343      2.57505 -0.0007764583     16195.44
        8370     1.050684      2.57497 -2.085029e-05     16195.66
      8370.2     1.049608     2.575135  0.001821733      16196.2
      8370.4     1.048193     2.575787  0.002971029     16197.63
      8370.6     1.046115     2.576507  0.003898277     16198.15
      8370.8     1.043701     2.577346  0.004779761     16198.94
        8371     1.040898     2.578253  0.005719497     16199.91
      8371.2     1.037829     2.579611  0.007150681     16200.32
      8371.4     1.034501     2.581083  0.008462773     16201.69
      8371.6     1.030901     2.583067  0.009857872      16202.6
      8371.8     1.027099     2.585024   0.01189789     16203.18
        8372     1.023059     2.587497   0.01240688     16204.14
      8372.2     1.018923     2.590601    0.0137716     16204.58
      8372.4     1.014877     2.592992   0.01496284     16205.29
      8372.6     1.010565     2.596041   0.01394752     16205.91
      8372.8     1.006113     2.599467   0.01609773     16206.39
        8373     1.001581     2.601759    0.0169264      16206.9
      8373.2     0.997151     2.605871   0.01778525     16207.86
      8373.4    0.9925292     2.609582   0.01985439     16208.45
      8373.6    0.9877768     2.613695   0.02050986      16208.9
      8373.8    0.9829417     2.617643   0.02187842     16210.05
        8374    0.9779984     2.622278   0.02238782     16210.56
      8374.2    0.9728772     2.627085   0.02359918     16210.28
      8374.4    0.9678243     2.631606   0.02355248     16211.01
      8374.6    0.9625948     2.636522   0.02343819     16211.69
      8374.8    0.9573294      2.64112   0.02395728     16212.01
        8375    0.9517856     2.645835   0.02402417     16212.55
      8375.2    0.9465933     2.650771   0.02484248     16213.69
      8375.4    0.9411934     2.655741   0.02584265     16214.13
      8375.6    0.9359362     2.660994   0.02685664     16214.83
      8375.8    0.9304439     2.666509   0.02813286     16215.53
        8376    0.9249994     2.672257   0.02861292     16216.13
      8376.2      0.91969     2.678248   0.02925526     16217.49
      8376.4    0.9146136     2.683885   0.02962998     16218.34
      8376.6    0.9093956     2.689914   0.02950879     16218.72
      8376.8    0.9043709     2.695961   0.02993803     16219.49
        8377    0.8992569     2.701855   0.03005425     16220.52
      8377.2    0.8942584     2.707835   0.03064188     16221.61
      8377.4    0.8895195     2.713957   0.03075111     16222.72
      8377.6    0.8850424     2.720474   0.03053394     16223.91
      8377.8    0.8807003     2.726456   0.02975249     16224.43
        8378    0.8766517     2.732262    0.0296912     16225.43
      8378.2    0.8726843     2.737759   0.02950643     16226.16
      8378.4    0.8688296     2.744227   0.02901834     16226.75
      8378.6    0.8650636     2.750061   0.02996047     16227.04
      8378.8    0.8615199     2.755477   0.02855008     16227.72
        8379    0.8581197     2.761727   0.02794499     16228.25
      8379.2    0.8549078     2.767067   0.02777337     16229.44
      8379.4    0.8518159     2.772417   0.02594143     16229.95
      8379.6    0.8487805     2.777696   0.02589362     16230.51
      8379.8    0.8458758     2.782481   0.02564626     16231.82
        8380    0.8431208     2.787782   0.02405069     16232.56
      8380.2     0.840418     2.792934   0.02335054     16233.37
      8380.4    0.8377666     2.796936   0.02145388     16234.15
      8380.6    0.8353874     2.801161   0.01871343     16235.25
      8380.8    0.8330516     2.804945   0.01815692     16236.64
        8381    0.8308061     2.807905    0.0167964     16237.24
      8381.2    0.8286833     2.811462    0.0150807     16238.29
      8381.4    0.8266992     2.814598    0.0135248      16239.3
      8381.6    0.8246901      2.81701   0.01100853     16239.63
      8381.8    0.8229643     2.818724  0.008625721     16240.61
        8382     0.821165     2.820269  0.006245459      16241.1
      8382.2    0.8194687     2.821499  0.004419292     16241.83
      8382.4    0.8178762     2.822006   0.00311053     16242.24
      8382.6    0.8164051      2.82226 0.0002402127     16242.62
      8382.8    0.8150859     2.822757 -0.001470008     16243.76
        8383    0.8138777     2.821691 -0.002907668     16244.28
      8383.2    0.8128628      2.82083 -0.006158511     16245.84
      8383.4    0.8118492     2.819934 -0.006538973     16246.43
      8383.6    0.8109912      2.81783 -0.008213564     16247.29
      8383.8    0.8103415      2.81646  -0.01061416     16248.25
        8384    0.8098077     2.814259  -0.01120243     16248.99
      8384.2    0.8094433     2.811442  -0.01360479     16249.17
      8384.4    0.8091197     2.808868  -0.01546289     16250.17
      8384.6     0.808946     2.805576  -0.01667381     16250.58
      8384.8    0.8090117     2.801889  -0.01808198     16251.99
        8385    0.8090437     2.798103  -0.01933306     16251.94
      8385.2    0.8092502     2.794403  -0.02000424     16252.69
      8385.4    0.8096031     2.790109  -0.02115674     16254.09
      8385.6    0.8100454     2.785886  -0.02276248     16254.66
      8385.8    0.8105547     2.781178  -0.02407921     16254.73
        8386    0.8111162     2.776193  -0.02546889     16255.19
      8386.2    0.8119292     2.770846  -0.02632753     16255.49
      8386.4    0.8128473     2.765511  -0.02722499     16256.35
      8386.6     0.813837     2.760116  -0.02823291     16257.01
      8386.8    0.8149259     2.754413  -0.02928377     16258.24
        8387    0.8159328      2.74826  -0.03025705     16258.58
      8387.2     0.817116     2.742084   -0.0308933     16259.21
      8387.4    0.8183791      2.73591  -0.03126489     16259.67
      8387.6    0.8198009     2.729698  -0.03124506     16260.81
      8387.8    0.8211548     2.723248    -0.030777     16261.11
        8388    0.8226294     2.717087  -0.03104601     16261.87
      8388.2    0.8242138     2.711289  -0.03043783      16263.2
      8388.4    0.8258466     2.704861  -0.03085027     16263.79
      8388.6    0.8275818     2.698898  -0.03014949     16265.15
      8388.8    0.8292694     2.692407  -0.02954577     16266.38
        8389    0.8309598     2.687169   -0.0285482     16266.83
      8389.2      0.83268     2.681225  -0.02755523     16267.52
      8389.4    0.8345386     2.676059  -0.02724689     16268.27
      8389.6    0.8361144     2.670363  -0.02616306     16267.76
      8389.8    0.8379746     2.665372  -0.02597554     16268.94
        8390    0.8398563     2.660294  -0.02471008     16269.66
      8390.2    0.8416024     2.655279  -0.02465424     16269.71
      8390.4    0.8435011     2.650595  -0.02459802     16270.05
      8390.6    0.8454315     2.645648  -0.02377493     16270.88
      8390.8    0.8472654     2.640616  -0.02356619     16270.97
        8391    0.8490967     2.636259  -0.02300349     16271.24
      8391.2    0.8510172     2.631742  -0.02259511     16271.83
      8391.4    0.8530884     2.627245  -0.02163748     16272.39
      8391.6    0.8551429      2.62254   -0.0210349     16272.62
      8391.8    0.8571604     2.618949  -0.02041755     16273.33
        8392    0.8591478     2.614914  -0.01874416     16274.07
      8392.2    0.8611612     2.610911  -0.01883098     16275.18
      8392.4    0.8632581     2.607544  -0.01890199     16275.49
      8392.6    0.8655419     2.603884  -0.01852713     16276.41
      8392.8    0.8680631     2.599793  -0.01786133     16277.37
        8393    0.8704145      2.59609  -0.01680312     16278.51
      8393.2    0.8727861     2.593255  -0.01507908     16279.06
      8393.4    0.8751493     2.590441  -0.01422459     16280.09
      8393.6    0.8777157     2.587729  -0.01362208     16280.84
      8393.8    0.8804321      2.58471  -0.01364636     16282.04
        8394    0.8831807     2.582358  -0.01283671     16283.22
      8394.2    0.8859895     2.579524  -0.01157922     16284.25
      8394.4    0.8887663      2.57746  -0.01017332     16284.77
      8394.6    0.8916118     2.575447 -0.008515332     16285.32
      8394.8    0.8945772     2.574219 -0.007337181     16285.25
        8395     0.897599     2.572712 -0.007291223     16285.59
      8395.2    0.9007336      2.57159 -0.006722582     16286.41
      8395.4    0.9038963     2.569614 -0.005988693     16286.41
      8395.6    0.9071589     2.568841  -0.00547649     16287.07
      8395.8    0.9104167     2.567921 -0.004374982     16287.68
        8396    0.9136857     2.567209 -0.003787721     16288.28
      8396.2    0.9169797     2.566114  -0.00304096     16289.24
      8396.4    0.9204168     2.565811 -0.002383209     16290.58
      8396.6    0.9237558     2.565488 -0.001371213     16291.23
      8396.8    0.9272888     2.565302 -0.000913202      16292.5
        8397    0.9307763     2.565017 -0.0005343166     16293.17
      8397.2    0.9343519      2.56508 -0.0004183478     16294.27
      8397.4    0.9378197     2.565061 -0.0002890776     16294.67
      8397.6    0.9413822     2.564968 -0.0004534294      16295.3
      8397.8    0.9451401     2.564785  4.46797e-05     16295.82
        8398    0.9487291     2.564717 0.0003249648     16296.28
      8398.2    0.9520947     2.565097 0.0006693058     16296.55
      8398.4    0.9553992     2.565228  0.001031275      16296.9
      8398.6    0.9586897     2.565321 0.0003602917      16297.2
      8398.8    0.9619382     2.565543 8.267865e-05     16297.71
        8399    0.9652547     2.565385 -0.0004077136     16298.47
      8399.2    0.9684379     2.565294 -0.0008659587     16298.88
      8399.4    0.9715452     2.564995 -0.002221496      16299.6
      8399.6    0.9744545     2.564914 -0.002724065     16299.91
      8399.8    0.9774218     2.564303 -0.002824112     16300.69
        8400    0.9803891     2.563692 -0.002924158     16301.47
        8401    0.9946883     2.560616   -0.0031384     16305.49
        8402     1.008123     2.557093 -0.002749992     16309.13
        8403     1.021566     2.553929 -0.001763812      16311.8
        8404     1.035863     2.552692 0.0001134583     16315.06
        8405     1.051257     2.553561  0.002416479     16319.55
        8406     1.066527     2.557547  0.004481946     16323.74
        8407     1.080242     2.563594  0.006150513     16328.08
        8408     1.091087      2.57062  0.006775355     16333.21
        8409     1.098513     2.578163  0.006786559      16338.1
        8410     1.102792     2.584649  0.006455704     16342.34
        8411     1.103775     2.590741  0.006132772     16345.43
        8412     1.101735     2.596443  0.006472627     16349.15
        8413     1.097119     2.602694  0.007312939     16353.54
        8414     1.090966     2.610539  0.008695713     16358.69
        8415     1.084163     2.619992   0.01004089     16363.14
        8416     1.077383     2.631226   0.01085671     16366.77
        8417     1.070634     2.642857   0.01127121     16371.56
        8418     1.063678     2.653966   0.01106393     16376.89
        8419     1.056307     2.665077   0.01070861      16381.2
        8420     1.048841     2.675482   0.01063548      16384.3
        8421     1.041365     2.685692   0.01085505     16387.75
        8422     1.033876     2.696508   0.01158945     16391.46
        8423     1.026575     2.708497   0.01246912     16395.08
        8424     1.019797     2.721839   0.01344938     16397.21
        8425     1.013848     2.735568   0.01409131     16398.74
        8426      1.00873     2.750305   0.01406368     16401.67
        8427      1.00436     2.764863   0.01360801     16404.92
        8428      1.00041     2.778094   0.01233593     16408.21
        8429    0.9967899         2.79   0.01023876      16411.9
        8430    0.9936285     2.799649  0.007397224     16415.41
        8431     0.991133     2.805818  0.004071739     16420.02
        8432    0.9892067     2.807683 0.0003068298     16424.43
        8433    0.9879748     2.806287 -0.003650063     16428.26
        8434    0.9875842     2.800876 -0.007322495     16431.95
        8435    0.9879146     2.791218  -0.01057519     16436.43
        8436    0.9889045     2.778393  -0.01316262     16439.93
        8437    0.9900691     2.763986  -0.01486183     16442.21
        8438     0.991283     2.748226  -0.01599384     16445.64
        8439     0.992231      2.73177  -0.01671279     16450.39
        8440     0.992764     2.714418  -0.01713392     16455.29
        8441    0.9927829     2.697135  -0.01729494      16459.7
        8442    0.9924669      2.67969  -0.01690773     16463.56
        8443    0.9921392      2.66259  -0.01614492     16467.27
        8444    0.9916673     2.646787  -0.01485073     16471.45
        8445    0.9911367     2.632556  -0.01327975     16475.49
        8446    0.9905467     2.620287  -0.01188818     16477.97
        8447    0.9898337     2.609471  -0.01098129     16479.98
        8448    0.9891317     2.599234  -0.01105609     16483.71
        8449    0.9884837      2.58863  -0.01196862     16488.45
        8450    0.9881825     2.576063  -0.01334666     16493.13
        8451    0.9879017     2.561597  -0.01471318     16497.49
        8452    0.9875299     2.545847   -0.0155271     16501.89
        8453    0.9873261     2.529778  -0.01558207     16505.69
        8454    0.9874642     2.513955  -0.01493459     16508.98
        8455    0.9879687     2.499269  -0.01377116     16512.66
        8456    0.9885995     2.486109  -0.01189047     16516.33
        8457    0.9896269     2.474693  -0.00949161     16520.42
        8458    0.9908516     2.466393 -0.006643278     16524.22
        8459    0.9919469     2.461302  -0.00363166     16527.73
        8460    0.9927853     2.459536 -0.0007213734     16531.54
        8461    0.9931584     2.460166  0.001975468     16535.47
        8462    0.9932704     2.463507   0.00432291     16539.75
        8463    0.9929492     2.469204  0.006542476     16542.92
        8464    0.9921575     2.476828  0.008352595     16546.12
        8465    0.9909704     2.486336  0.009612799      16550.1
        8466    0.9892665     2.496918    0.0105452     16554.13
        8467    0.9869045     2.507655   0.01104671     16557.73
        8468    0.9839075     2.519008   0.01133934     16561.27
        8469    0.9800682     2.530523   0.01135288     16564.43
        8470    0.9756678     2.542275   0.01070267     16566.92
        8471     0.970999     2.553067   0.00960122      16569.8
        8472    0.9661921     2.561819  0.007874754     16572.62
        8473     0.961485     2.568928  0.005942482     16575.86
        8474    0.9568228     2.573774  0.003962034     16579.86
        8475    0.9522645     2.576837  0.001907612     16584.15
        8476    0.9482264     2.577667 0.0001376288     16587.37
        8477    0.9451747     2.576559 -0.001386794     16589.39
        8478    0.9433764     2.574325 -0.002237017     16592.12
        8479    0.9427825      2.57129 -0.002470935     16595.68
        8480      0.94336     2.568719   -0.0020534      16600.8
        8481    0.9450468     2.566675 -0.0006088737     16606.41
        8482    0.9477428     2.566111  0.001545485     16611.61
        8483    0.9514341     2.568854  0.004426233     16616.54
        8484    0.9560685     2.574901  0.007897138     16620.85
        8485    0.9612965      2.58438   0.01146732     16623.29
        8486    0.9669626       2.5977   0.01490901     16625.23
        8487    0.9725625     2.614723   0.01766976     16627.75
        8488    0.9779011     2.634537   0.01920263     16631.55
        8489    0.9828666     2.655059    0.0196147     16635.09
        8490    0.9877494      2.67451   0.01891756     16638.37
        8491    0.9926375     2.693182   0.01739491      16643.3
        8492     0.997164     2.710207    0.0156014     16648.58
        8493     1.001581     2.724638   0.01327323     16652.77
        8494     1.005804     2.736916   0.01063864     16655.78
        8495     1.009577     2.746275  0.008133286     16658.19
        8496     1.012802     2.752762  0.005656638     16661.49
        8497     1.015297     2.757172  0.003611843     16664.77
        8498     1.017323     2.759542  0.002099684     16667.87
        8499     1.018933     2.760722 0.0005354268     16670.26
        8500     1.020356     2.761161 -0.0007996469     16673.33
        8501     1.021826     2.759313 -0.002327243     16677.95
        8502     1.023287     2.756344 -0.004210477     16683.04
        8503     1.024889     2.751414 -0.006157909     16687.67
        8504     1.026395     2.744319 -0.008439735     16691.06
        8505     1.028114     2.734682  -0.01061301     16694.57
        8506     1.029876     2.722585  -0.01281896     16698.48
        8507     1.031783     2.708961  -0.01482388     16702.06
        8508     1.033883     2.693043  -0.01664608     16705.53
        8509     1.035623     2.675386  -0.01844321     16708.54
        8510     1.037387        2.656   -0.0199401     16712.67
        8511     1.039132     2.635189  -0.02127512     16716.97
        8512     1.040956     2.613283  -0.02234292      16721.5
        8513     1.043718     2.590286  -0.02320751     16726.53
        8514     1.047974     2.566629  -0.02386147     16727.28
        8515      1.05227     2.542359  -0.02428243     16714.49
        8516     1.054912     2.517837  -0.02428612     16694.88
        8517     1.056643     2.493156  -0.02346138     16686.41
        8518     1.057199     2.469484  -0.02203637     16685.34
        8519     1.056786     2.448513   -0.0199627     16684.88
        8520     1.056627     2.429691  -0.01750358      16685.3
        8521     1.055455     2.413305  -0.01472687     16687.94
        8522     1.053064      2.39947  -0.01155218     16691.98
        8523     1.050738     2.389606 -0.008094708     16696.94
        8524      1.04941     2.383482 -0.004348104     16702.78
        8525     1.048811     2.380926 -0.0008334257     16706.54
        8526     1.046216     2.382077  0.002387326      16708.4
        8527     1.041804     2.386272  0.005397124     16712.46
        8528     1.037837     2.393032  0.007914965     16720.28
        8529     1.033602     2.402515  0.009855602     16726.59
        8530     1.028823     2.413737   0.01137444     16728.58
        8531     1.024774     2.425694   0.01232135     16730.13
        8532      1.02195     2.438529   0.01287114     16733.92
        8533     1.018055       2.4518   0.01299329     16736.89
        8534     1.012527     2.465222   0.01262147     16739.86
        8535     1.007394     2.477667   0.01195283     16745.83
        8536      1.00266     2.489015   0.01103939     16750.59
        8537    0.9979807     2.499611   0.01015112     16753.03
        8538    0.9941466     2.509379  0.009154009     16752.46
        8539    0.9903015     2.518272  0.007915207     16754.75
        8540    0.9862219     2.525631  0.006645103     16761.97
        8541    0.9835223     2.531272  0.005180442     16766.42
        8542    0.9817175      2.53596  0.003616846     16768.99
        8543    0.9799717     2.538994  0.002244679     16774.09
        8544    0.9792474     2.540099 0.0009927123     16780.15
        8545    0.9797143     2.540251 -0.000104123     16784.47
        8546    0.9794171     2.539931 -0.0009398417     16786.43
        8547    0.9788906     2.538577 -0.001604944     16789.52
        8548    0.9786422     2.536339 -0.002153697     16793.92
        8549    0.9786662     2.533831 -0.002472856     16798.21
        8550    0.9796503     2.531316 -0.002676296     16803.17
        8551    0.9805721     2.528686 -0.002884892     16808.05
        8552    0.9814102     2.525634 -0.003019478     16810.14
        8553    0.9830635     2.522292  -0.00323772     16812.24
        8554    0.9848556     2.519238 -0.003370601     16816.66
        8555    0.9860617     2.515735  -0.00356004     16820.05
        8556    0.9878131     2.512152 -0.003966142     16823.95
        8557    0.9899455     2.508051 -0.004264087     16828.63
        8558    0.9916539     2.503373 -0.004421557     16833.66
        8559    0.9927526     2.498679 -0.004237133     16836.86
        8560    0.9935906     2.494466 -0.003739958     16837.17
        8561    0.9944516     2.491103 -0.002861083     16839.11
        8562    0.9953677     2.488414 -0.001734199     16844.83
        8563    0.9969526     2.487234 -0.0004093652     16849.99
        8564    0.9985713     2.487529  0.001288559     16853.81
        8565    0.9991174     2.489465  0.003073018     16858.07
        8566    0.9991919     2.493568  0.004856812     16863.31
        8567    0.9994235     2.499526   0.00654876     16866.04
        8568    0.9997162     2.506956  0.008014604     16867.55
        8569    0.9995401     2.515661  0.009014271     16871.43
        8570     0.999602     2.525626  0.009439248      16876.3
        8571      1.00097     2.535583  0.009529909     16882.89
        8572     1.002515     2.544713  0.009079612     16890.59
        8573     1.003544      2.55378  0.008384515      16896.5
        8574     1.004909     2.561945  0.007725138     16899.27
        8575     1.006108     2.569121  0.006855492     16901.91
        8576     1.006262     2.575614  0.005945395     16906.36
        8577     1.006191     2.581202   0.00517622     16910.04
        8578     1.006894     2.585726  0.004300215     16914.99
        8579     1.007914     2.589826  0.003316075      16921.1
        8580     1.008888     2.592814  0.002453498      16925.4
        8581     1.009846     2.594466  0.001486195     16929.53
        8582     1.010869      2.59554 0.0004192513     16934.41
        8583     1.011979     2.595771 -0.0006236694     16938.56
        8584     1.013134     2.594491 -0.001790102     16940.38
        8585     1.014057     2.591972 -0.003027395     16941.63
        8586     1.014737      2.58838 -0.004203855     16943.74
        8587     1.015261     2.583662 -0.005385416     16945.23
        8588     1.016196     2.577676 -0.006656523     16945.96
        8589     1.017186      2.57043 -0.007806517      16949.7
        8590     1.018224     2.561754 -0.008903386     16956.93
        8591     1.018891     2.552435 -0.009923897     16961.82
        8592     1.018385     2.542063  -0.01064783     16962.76
        8593     1.018112     2.530735  -0.01122406     16963.06
        8594     1.018174     2.519162  -0.01157404     16965.97
        8595     1.017634     2.507539  -0.01162726     16970.12
        8596      1.01663     2.495766  -0.01151739     16973.25
        8597     1.016047     2.484225  -0.01126271     16975.32
        8598     1.015439     2.473093  -0.01087472     16977.02
        8599     1.014221     2.462488  -0.01041027     16980.69
        8600     1.012456     2.452267 -0.009888693     16987.32
        8601     1.010259     2.442584 -0.009196941      16991.3
        8602     1.008002     2.433538 -0.008284627     16992.31
        8603     1.005968     2.425701  -0.00733745     16995.88
        8604     1.004143     2.419129 -0.006341007     17002.66
        8605     1.002651     2.413235 -0.005388347     17009.79
        8606     1.001354     2.408174 -0.004418716      17013.6
        8607    0.9997434     2.404147 -0.003485118     17017.79
        8608    0.9979394     2.401454 -0.002650883     17022.07
        8609    0.9958806     2.399294 -0.001866191     17024.95
        8610    0.9942405     2.397571 -0.001254658     17028.74
        8611     0.993584     2.396682 -0.0008247726     17032.95
        8612    0.9935619     2.396435 -0.0003756387     17037.56
        8613    0.9934747     2.395995 -0.0001618071     17039.71
        8614    0.9932176     2.396068 -0.0001342801     17042.21
        8615    0.9927564     2.396035  5.25252e-05     17045.72
        8616    0.9925516     2.395898 -1.01531e-05     17048.05
        8617    0.9927702     2.396205 -0.0001423871     17049.22
        8618    0.9930163     2.396027 -0.0001567716     17050.93
        8619    0.9933125     2.395466 -0.0003092061     17052.09
        8620    0.9934698     2.395271 -0.0003329186     17051.56
        8621    0.9938473     2.394968 -0.0003007049     17047.27
        8622    0.9950672     2.394696 -0.0003397124     17028.46
        8623    0.9966351     2.394263 -0.0002428866     16940.03
        8624      0.99619     2.393912 -0.0001500518     16837.39
        8625    0.9945489     2.393997 -0.0002170554     16825.26
        8626    0.9947359     2.394095 -0.0002291758     16898.97
        8627    0.9958177     2.393395 -0.0002553714      17034.2
        8628    0.9973032     2.392996 -0.0002272147     17083.89
        8629    0.9980915     2.392975 0.0001964434     17095.09
        8630    0.9988207     2.393187 0.0006441276     17100.79
        8631    0.9994291      2.39418 0.0009669931     17106.98
        8632    0.9998976     2.395572  0.001291023     17112.53
        8633     1.000282     2.396843  0.001479822     17115.59
        8634     1.000242     2.398351  0.001722691     17117.42
        8635     1.000054       2.4001  0.001971066     17121.18
        8636    0.9996127     2.402463  0.002070467     17127.12
        8637    0.9990654     2.404728  0.002185727     17131.85
        8638    0.9993211     2.406633  0.002098558     17134.54
        8639    0.9995749     2.408843  0.002055333      17136.7
        8640    0.9997565     2.410857  0.002107386     17139.49
        8641     1.000184     2.412949  0.001983718     17141.37
        8642     1.000705     2.415062  0.001958997     17142.56
        8643     1.001497     2.416777  0.001854388     17145.51
        8644     1.002263     2.418693  0.001546339      17148.3
        8645     1.002675     2.420366   0.00138615     17150.93
        8646     1.002604     2.421247  0.001162501     17155.61
        8647     1.002498     2.422322 0.0009330958     17160.54
        8648     1.002878     2.423343 0.0009344619     17165.08
        8649     1.003586     2.424099 0.0007986122     17169.93
        8650     1.004045     2.424985  0.000742475     17174.56
        8651     1.004619     2.425517 0.0007415368     17179.94
        8652     1.005553     2.426313 0.0007758221     17184.91
        8653     1.006521     2.427065 0.0008828583     17188.39
        8654     1.006761     2.428089 0.0008743321      17191.1
        8655     1.006718     2.429048 0.0009117349     17194.75
        8656     1.007125      2.42981 0.0009096184     17199.21
        8657     1.008024     2.430712 0.0009856553     17203.55
        8658     1.008923     2.431727  0.001102664     17206.95
        8659     1.009462     2.432991  0.001223308     17209.73
        8660     1.009921     2.434221  0.001369737     17211.22
        8661     1.010633     2.435605  0.001491724     17214.24
        8662     1.010934     2.437206  0.001633232     17217.95
        8663     1.011297     2.438957  0.001659833     17221.63
        8664     1.012439     2.440754  0.001539099     17225.23
        8665     1.013651     2.442244  0.001379137     17226.34
        8666     1.014286     2.443362  0.001188222     17227.25
        8667     1.014662     2.444474 0.0009286421     17231.51
        8668      1.01493     2.445507 0.0006371481     17236.37
        8669     1.015413     2.445959 0.0002519179     17239.73
        8670     1.015972     2.445911 -0.0003030605     17244.26
        8671     1.015809     2.445482 -0.0008182682     17248.36
        8672     1.014827     2.444295 -0.001344764     17250.58
        8673     1.013615     2.442686 -0.001874439      17253.5
        8674     1.012852     2.440532 -0.002247453     17257.37
        8675     1.012364     2.437984 -0.002672383     17260.09
        8676     1.011528     2.435305 -0.003074098     17262.55
        8677     1.010241     2.431996 -0.003438455     17266.22
        8678     1.008813     2.428236 -0.003787008     17270.96
        8679     1.007489      2.42423 -0.004019377     17275.63
        8680     1.006059     2.420157 -0.004191013     17279.09
        8681     1.004214     2.415919 -0.004370055     17282.69
        8682     1.002688     2.411472 -0.004528494     17287.44
        8683      1.00145      2.40675 -0.004604619     17290.96
        8684     1.000203     2.402043  -0.00465958      17292.8
        8685    0.9987188       2.3975 -0.004564021     17293.56
        8686    0.9968091     2.392833 -0.004452245     17295.43
        8687    0.9948848     2.388494 -0.004311497      17297.9
        8688    0.9933823     2.384234 -0.003960672     17300.11
        8689    0.9921091     2.380254 -0.003720824     17303.13
        8690    0.9910055     2.376991 -0.003300937     17307.32
        8691    0.9902028      2.37361 -0.002819448     17311.05
        8692    0.9895382      2.37103 -0.002447627     17314.21
        8693    0.9888375     2.368977 -0.001957261     17317.51
        8694    0.9883483       2.3672 -0.001584121     17321.46
        8695    0.9883767     2.365781 -0.001235833     17326.24
        8696    0.9882256     2.364694 -0.0009209194     17330.11
        8697    0.9878533     2.364033 -0.0006187389     17329.02
        8698    0.9879294     2.363516  -0.00043162     17318.11
        8699    0.9879936     2.363307 -0.0004548865      17307.2
        8700    0.9878285     2.362967 -0.0004519717     17309.99
        8701    0.9878058     2.362214 -0.0005465662     17321.32
        8702    0.9877835     2.361708 -0.0007197137     17334.92
        8703     0.987764      2.36112 -0.001007549     17344.37
        8704    0.9880077     2.360088 -0.001472821     17349.58
        8705    0.9884007     2.358184 -0.001952677     17350.26
        8706    0.9885474     2.355817 -0.002408718     17341.68
        8707    0.9887007      2.35331 -0.002694513     17332.93
        8708    0.9891187     2.350453 -0.002935016     17336.75
        8709    0.9894478     2.347406 -0.003304713     17346.92
        8710    0.9894535     2.344077 -0.003614568     17358.08
        8711    0.9892345     2.340091 -0.003765976     17366.99
        8712    0.9887602     2.335995 -0.003817686     17372.68
        8713    0.9885264     2.332342 -0.003749115     17377.13
        8714    0.9885525     2.328806 -0.003478001     17381.15
        8715    0.9883536     2.325094 -0.003136968     17385.48
        8716    0.9878843     2.322083 -0.002704904     17389.96
        8717    0.9875545     2.319794   -0.0022196      17393.9
        8718    0.9873027     2.317987  -0.00175723     17397.77
        8719    0.9871213     2.316216 -0.001395918        17403
        8720    0.9871417     2.315054 -0.001144981     17407.83
        8721     0.987287      2.31421 -0.0008571425     17410.77
        8722    0.9873246     2.313407 -0.0006262356     17411.63
        8723    0.9873407     2.312787 -0.0004929797     17413.85
        8724    0.9874355     2.312549 -0.000491519     17417.16
        8725    0.9876366     2.312238 -0.0004494875     17420.76
        8726    0.9879289     2.311441 -0.0004663749      17424.2
        8727    0.9883776     2.310989 -0.0005429618     17428.71
        8728    0.9888758     2.310684 -0.0004251559     17432.48
        8729    0.9893873     2.310066 -0.0003948547     17434.69
        8730    0.9899101      2.30974 -0.0004030441     17436.79
        8731    0.9904993      2.30941 -0.0002402847     17439.25
        8732    0.9915193     2.309072 -0.0001323443     17443.33
        8733    0.9927286     2.309105 -0.0001061929     17448.78
        8734    0.9936643     2.309211 -4.632115e-05     17454.15
        8735    0.9940011     2.308985 -1.415747e-06     17457.71
        8736    0.9938563     2.308886 6.664372e-05     17459.81
        8737    0.9939354     2.309099 0.0001741636     17462.85
        8738     0.994622     2.309477 0.0002338887     17467.92
        8739    0.9954853     2.309682 0.0002051723     17472.53
        8740    0.9963411     2.309822 0.0001969752     17475.16
        8741    0.9972188      2.30992 0.0003063017     17475.96
        8742    0.9982169     2.310265 0.0003603664      17477.9
        8743    0.9990067     2.310907 0.0004633369     17480.51
        8744    0.9997561     2.311263 0.0004878425     17482.82
        8745     1.000671     2.311774 0.0004580968      17486.9
        8746     1.001385     2.312217 0.0004894168     17490.43
        8747     1.001675     2.312739 0.0004820703     17491.79
        8748      1.00194     2.313221 0.0004947372     17492.59
        8749     1.002357     2.313702 0.0004652877     17494.92
        8750     1.002823     2.314196 0.0004824725     17498.57
        8751     1.003403     2.314601 0.0004558913      17501.7
        8752     1.003707     2.315151 0.0004152898     17503.34
        8753     1.004045     2.315525 0.0005319885     17506.99
        8754     1.005074     2.315857  0.000462773     17512.33
        8755     1.006322     2.316728 0.0004371919      17515.5
        8756     1.007288     2.317002 0.0004093694     17518.37
        8757     1.007684     2.317274 0.0002501381     17521.16
        8758     1.008312     2.317494 0.0003315516     17523.01
        8759      1.00907     2.317729  0.000334851     17525.62
        8760     1.009499     2.318328 0.0003451387     17529.83
        8761     1.009491     2.318614 0.0002247007     17535.13
        8762     1.008908     2.318875 3.751576e-05     17539.86
        8763     1.008221     2.318628 8.852332e-05     17543.81
        8764     1.007599     2.318478 0.0001128333     17546.78
        8765     1.007079     2.318968 0.0001759897     17549.74
        8766     1.006822     2.319326 0.0002082467     17552.07
        8767      1.00679     2.319332 5.629605e-05     17554.36
        8768     1.006766     2.319311 -3.286296e-05     17557.38
        8769     1.006694     2.319193 -6.845353e-06     17561.35
        8770      1.00631     2.319195 -3.623159e-06     17564.45
        8771     1.005306     2.319304 -0.0001060505     17567.58
        8772     1.004152     2.319297 -0.0001922094     17570.73
        8773     1.003193     2.318769 -0.0003155467     17573.65
        8774     1.002214     2.318426 -0.0005018812     17577.36
        8775     1.001282     2.318042 -0.0005046722     17580.36
        8776     1.000436     2.317289 -0.0006403125     17582.29
        8777    0.9998384      2.31675 -0.0008541887     17584.14
        8778    0.9994179     2.315865 -0.001000425     17585.49
        8779    0.9986095     2.314625 -0.001200843     17586.59
        8780    0.9976484     2.313288 -0.001348674     17588.62
        8781    0.9973491     2.311947 -0.001475741     17593.17
        8782    0.9975315      2.31047   -0.0016687     17597.15
        8783    0.9979071     2.308722  -0.00184988      17600.1
        8784    0.9979768     2.306613 -0.002025566     17602.22
        8785    0.9972579     2.304547 -0.002172499     17603.86
        8786    0.9962698     2.302368 -0.002309385     17606.13
        8787    0.9955699     2.300032  -0.00243811     17608.35
        8788    0.9951536     2.297375 -0.002520881     17608.95
        8789    0.9950781     2.294795 -0.002600667     17610.23
        8790    0.9952119     2.292284 -0.002565952      17613.9
        8791    0.9953628      2.28963 -0.002574565     17618.33
        8792    0.9954055     2.287111 -0.002525131     17622.33
        8793    0.9956223     2.284496  -0.00242539     17625.77
        8794     0.995892     2.282184 -0.002358261     17628.42
        8795    0.9960361     2.279928 -0.002221079     17631.24
        8796    0.9962787     2.277678 -0.002093075     17634.31
        8797    0.9966707     2.275612 -0.001981683     17636.02
        8798    0.9969125     2.273811 -0.001829206     17637.51
        8799     0.996417     2.272002 -0.001678283     17639.07
        8800     0.995623     2.270362 -0.001473958     17640.59
        8801    0.9953931     2.268899 -0.001334927     17643.76
        8802    0.9953643     2.267915 -0.001180439      17646.6
        8803    0.9954231     2.266662 -0.001034582     17649.29
        8804    0.9954647      2.26564 -0.001001098     17653.31
        8805    0.9954591     2.264761 -0.0008734149     17656.97
        8806    0.9952896     2.263911 -0.0006917082     17659.96
        8807       0.9951     2.263168 -0.0005982152     17662.47
        8808    0.9949582     2.262873 -0.0005491206     17665.09
        8809    0.9953303     2.262368 -0.000536007     17668.68
        8810    0.9957472     2.261714 -0.0006006951     17671.75
        8811    0.9955503     2.261024 -0.0005886646     17674.26
        8812    0.9952276      2.26047 -0.0005601488     17676.92
        8813    0.9949899     2.260013 -0.0005305213     17678.22
        8814    0.9947109     2.259474 -0.0005776459     17680.85
        8815    0.9945698     2.258902 -0.0006459982     17684.53
        8816    0.9944787      2.25816 -0.0007314125     17688.01
        8817    0.9945438     2.257429 -0.0007578772     17691.23
        8818    0.9947858     2.256548 -0.0008158645     17694.13
        8819    0.9950439     2.255871 -0.0009151933     17697.19
        8820    0.9949736     2.254896 -0.000969922     17698.92
        8821    0.9948432     2.253768 -0.001127585     17699.58
        8822    0.9949036     2.252669 -0.001237858      17699.7
        8823    0.9948304      2.25136 -0.001264908     17699.06
        8824    0.9946609     2.249945 -0.001377043     17697.89
        8825     0.994495     2.248709 -0.001556471     17697.28
        8826    0.9941493      2.24716 -0.001622393     17695.21
        8827    0.9937577     2.245134 -0.001754142     17690.05
        8828     0.993705     2.243455 -0.001908233     17681.76
        8829    0.9940629     2.241692 -0.001954954     17664.32
        8830    0.9950377     2.239527 -0.001810728     17620.21
        8831    0.9973575     2.237314 -0.001575853     17476.56
        8832    0.9973636     2.236212 -0.001631779     17242.09
        8833    0.9944692     2.235389 -0.001333091      17213.5
        8834    0.9957444        2.233 -0.001275725     17304.71
        8835    0.9955782     2.231982 -0.001569951     17268.67
        8836    0.9929795     2.231109 -0.001307382     17442.54
        8837    0.9940898     2.229109 -0.001375762     17677.79
        8838    0.9948637     2.227771 -0.001419956     17747.13
        8839    0.9949845     2.226479  -0.00119687     17762.51
        8840    0.9951794     2.225429 -0.001150269     17768.58
        8841    0.9954622     2.224321 -0.001100444     17772.08
        8842    0.9958171      2.22317 -0.001111961     17775.48
        8843     0.995995     2.222077 -0.001094078     17778.63
        8844    0.9962767     2.220982 -0.001117578     17781.58
        8845    0.9967869     2.219945  -0.00108193     17783.79
        8846    0.9971916     2.218699 -0.001091915     17785.32
        8847    0.9975643      2.21775 -0.001133105     17787.59
        8848    0.9982348     2.216614 -0.001101807     17791.42
        8849    0.9988954     2.215413 -0.001130998     17795.56
        8850    0.9992351     2.214292 -0.001101105     17798.78
        8851    0.9995147     2.213226 -0.001060503     17801.48
        8852    0.9998867      2.21221 -0.0009675367     17803.39
        8853     1.000422     2.211171 -0.0009141744     17804.82
        8854     1.000939     2.210422 -0.0008314332     17806.75
        8855     1.001255     2.209569 -0.0007383834     17809.95
        8856     1.001252     2.208884 -0.0007446959     17812.93
        8857     1.000951     2.208217 -0.0006741217     17814.88
        8858     1.000763     2.207443 -0.0006380045     17817.02
        8859     1.000635     2.206872 -0.0006067458     17819.84
        8860     1.000666     2.206332 -0.0005130693     17823.95
        8861      1.00093      2.20579 -0.0004011356     17830.04
        8862     1.001354     2.205391 -0.0003035381     17835.72
        8863     1.001297     2.205268 -0.0002514402     17838.74
        8864      1.00066     2.205118 -0.0002294774     17840.87
        8865     1.000103     2.204784 -0.000206002     17842.68
        8866    0.9996653     2.204473 -0.0001355571     17844.25
        8867    0.9992772     2.204444 -6.551155e-05     17846.17
        8868    0.9989162     2.204575 -4.811783e-05     17847.84
        8869    0.9986074     2.204522 -4.707082e-05      17849.6
        8870    0.9985864     2.204281 -5.366374e-05     17852.94
        8871    0.9986183     2.204256 -5.697196e-05     17856.45
        8872    0.9986412     2.204361  3.72519e-05     17860.12
        8873    0.9987666     2.204294  0.000163255     17864.46
        8874    0.9987222      2.20443 0.0001961337      17867.9
        8875    0.9984768     2.204909 0.0002731442     17870.33
        8876    0.9982842     2.205145  0.000224228     17873.06
        8877    0.9980447     2.205387 0.0001320616      17874.7
        8878    0.9978064     2.205327   0.00020782     17875.75
        8879    0.9977139     2.205437 0.0002465248     17878.05
        8880    0.9978055     2.205977 0.0003000595     17881.91
        8881    0.9977515     2.206373 0.0003328716     17885.67
        8882    0.9975592     2.206527 0.0002827484     17888.54
        8883    0.9974464     2.206768 0.0002382713     17890.31
        8884    0.9973493     2.207108 0.0002693104     17891.66
        8885    0.9971356     2.207326 0.0002746439     17894.53
        8886    0.9967964     2.207604 0.0002326546     17897.98
        8887    0.9965024     2.207867 0.0001910515     17902.03
        8888    0.9963198     2.208038  0.000130469     17905.46
        8889    0.9961657      2.20809 6.017462e-05     17908.78
        8890    0.9959117     2.208126 -1.905374e-05     17911.76
        8891    0.9958231     2.208108 -0.0001123423     17914.38
        8892    0.9958763     2.207962 -0.0002148581     17916.19
        8893    0.9958498     2.207641 -0.0003338308     17917.92
        8894    0.9957374     2.207266 -0.0004205009     17920.41
        8895    0.9955078     2.206772 -0.0005090458     17923.36
        8896    0.9955203      2.20628 -0.0006423595     17926.78
        8897    0.9958555     2.205605 -0.0007696414     17929.92
        8898     0.996166     2.204697 -0.0009067933     17932.03
        8899     0.996346     2.203694 -0.001045783     17935.01
        8900     0.996288     2.202653 -0.001191961     17938.15
        8901    0.9960237     2.201422  -0.00129149     17940.61
        8902    0.9958072     2.199929 -0.001464304     17943.21
        8903    0.9958582     2.198528 -0.001529824     17946.05
        8904    0.9959131     2.196796 -0.001520212     17948.61
        8905    0.9959973     2.195302 -0.001666577     17950.41
        8906    0.9960601     2.193848 -0.001730052     17952.27
        8907    0.9955802     2.191861  -0.00178143     17954.54
        8908    0.9950441     2.189875 -0.001811374     17957.44
        8909    0.9946596     2.188177 -0.001739016      17960.4
        8910    0.9943346     2.186603 -0.001670762     17963.77
        8911    0.9941787     2.184905  -0.00169125     17968.18
        8912    0.9942036     2.183192  -0.00170228      17972.2
        8913    0.9943721     2.181412 -0.001657821     17974.65
        8914    0.9944663     2.179794 -0.001612553     17976.09
        8915    0.9944935     2.178274 -0.001536621     17977.86
        8916    0.9945546     2.176742 -0.001459232     17980.39
        8917    0.9946635     2.175265 -0.001366903     17982.11
        8918    0.9946932     2.173957 -0.001303204     17984.38
        8919    0.9946911     2.172806 -0.001284114     17987.46
        8920    0.9947459     2.171529 -0.001216968     17990.96
        8921     0.994922     2.170129 -0.001185609     17993.53
        8922    0.9951696     2.169089 -0.001164948     17995.89
        8923    0.9954082     2.168064 -0.001086726     17999.18
        8924    0.9957114      2.16687   -0.0010888     18001.73
        8925    0.9961011     2.165782 -0.001039044     18004.43
        8926    0.9965189     2.164734 -0.0009613374     18007.85
        8927    0.9966981     2.163908 -0.000991878     18009.66
        8928    0.9969338     2.163024 -0.0009699453     18010.86
        8929    0.9973236     2.161814 -0.001011317     18013.05
        8930    0.9977326     2.160854 -0.001031933     18015.56
        8931    0.9981884     2.159863 -0.0009296584     18018.72
        8932    0.9987054     2.158896 -0.0008691013     18022.07
        8933    0.9993741     2.158096 -0.0008359499     18025.29
        8934    0.9995941     2.157378 -0.0007801158     18027.89
        8935    0.9993683     2.156519 -0.0008036111     18028.89
        8936    0.9996157     2.155776 -0.0008126782     18026.22
        8937     1.000468     2.154881 -0.000705806     18002.02
        8938     1.001012     2.154127 -0.0006861344      17955.5
        8939     1.000817     2.153696 -0.0006930186     17932.99
        8940     1.000268     2.153031  -0.00073961     17955.17
        8941     1.000183     2.152109 -0.0008162837     17998.52
        8942     1.000636     2.151168 -0.0008496636     18028.62
        8943     1.000897      2.15043 -0.0008191036     18037.77
        8944      1.00109     2.149633 -0.0007726608     18044.35
        8945     1.000897     2.148833 -0.0007655112     18049.86
        8946     1.000653     2.148078 -0.0007520378     18054.73
        8947     1.000509     2.147368 -0.0008124936     18058.63
        8948     1.000388     2.146625 -0.0008882495     18061.29
        8949     1.000486     2.145583 -0.0008974551      18064.1
        8950     1.000642     2.144525 -0.0009284559     18066.32
        8951     1.000575     2.143779 -0.0008989852     18067.51
        8952     1.000562     2.142911 -0.0008637194     18069.42
        8953     1.000812     2.141987 -0.0009037068     18072.51
        8954     1.000995      2.14107 -0.0009066232     18075.99
        8955     1.001118     2.140164 -0.0008786403      18079.5
        8956     1.001157     2.139284 -0.0008776504      18080.8
        8957     1.001134     2.138472 -0.000904688     18081.85
        8958     1.001075     2.137559 -0.0008893758     18083.63
        8959     1.001131     2.136545 -0.0008883876     18085.46
        8960     1.001345     2.135727 -0.0009113609     18087.76
        8961     1.001611     2.134919 -0.0008858998     18090.57
        8962     1.001623     2.133914 -0.0008867083     18093.43
        8963     1.001196     2.133001 -0.0009609196     18095.99
        8964     1.000863      2.13218 -0.001006784     18099.13
        8965      1.00083     2.131075 -0.001066778     18102.86
        8966     1.000816     2.129887  -0.00108738     18106.01
        8967     1.000935     2.128734 -0.001034415      18108.6
        8968     1.001232      2.12783 -0.0009895646      18110.9
        8969     1.001504     2.126937 -0.0009618607     18111.71
        8970     1.001899     2.125928 -0.0009398451      18112.8
        8971     1.002385     2.124887 -0.0009553437     18116.43
        8972     1.002668     2.124071 -0.0009232822     18120.62
        8973      1.00285     2.123116 -0.0008938281     18124.31
        8974     1.003003     2.122235 -0.0008847167     18127.11
        8975     1.002972     2.121312 -0.0008323204     18128.63
        8976     1.002791     2.120532 -0.0008162757     18130.17
        8977     1.002633     2.119787 -0.0007682165     18132.04
        8978     1.002439      2.11897 -0.0007858107     18133.48
        8979     1.002191     2.118239 -0.0007955534     18134.91
        8980     1.002128     2.117389 -0.0007517394     18137.04
        8981     1.002241     2.116605 -0.000759016     18138.99
        8982     1.002378     2.115963 -0.0007612038     18140.05
        8983     1.002057     2.115203 -0.0007014668     18140.86
        8984     1.001554     2.114344 -0.0006809107      18142.4
        8985     1.001279     2.113799 -0.0006878422     18144.87
        8986     1.000977      2.11324 -0.0005994566     18146.96
        8987     1.000557     2.112451 -0.0006184345     18149.26
        8988      1.00022     2.111946 -0.0006383049     18151.69
        8989     1.000071     2.111325 -0.000571264      18153.6
        8990     1.000085     2.110686 -0.0005665875     18155.49
        8991     1.000072     2.110166 -0.0005409857     18156.74
        8992    0.9999965      2.10968 -0.0005302155     18157.63
        8993      1.00017     2.109161 -0.0005511188      18159.5
        8994     1.000646     2.108566 -0.0006125379     18161.17
        8995     1.001167     2.107962 -0.0005851016     18163.39
        8996     1.001657      2.10723 -0.0005880985     18166.62
        8997     1.001846     2.106821 -0.0005729921     18169.17
        8998     1.001639     2.106213 -0.0004828497      18171.6
        8999      1.00114      2.10567 -0.0004723422     18173.34
        9000      1.00073     2.105298 -0.0005104147     18175.06
        9001     1.000411     2.104931 -0.0005352214     18176.78
        9002     1.000215     2.104171 -0.0005273501     18179.84
        9003     1.000107     2.103529 -0.0006066168     18183.05
        9004     1.000109     2.103189 -0.0005255074     18186.31
        9005     1.000344     2.102505 -0.000456101     18189.93
        9006      1.00051     2.102069 -0.0005476693      18192.7
        9007     1.000673     2.101704 -0.0004903052     18195.38
        9008     1.000686     2.100998 -0.0004411761     18198.02
        9009     1.000542     2.100544 -0.0004414679     18199.55
        9010     1.000395     2.100305 -0.0003735641     18200.96
        9011     1.000424     2.099939 -0.0003417487     18202.15
        9012      1.00058     2.099504 -0.0004014023     18203.81
        9013     1.000828     2.099177 -0.0004247642     18206.14
        9014     1.001241     2.098699 -0.0004074254     18208.36
        9015     1.001391      2.09824 -0.000433511     18210.74
        9016     1.001053     2.097874 -0.0004163451      18213.6
        9017     1.000447     2.097442 -0.0004020719     18215.71
        9018    0.9997245     2.097034 -0.0004275323     18217.55
        9019     0.999037     2.096631 -0.0005017223      18220.4
        9020    0.9985809     2.096164 -0.0005399272     18223.61
        9021    0.9983665     2.095436 -0.0005412246     18226.61
        9022    0.9982799     2.094874 -0.0005768703      18229.4
        9023     0.998317     2.094466 -0.0005421326     18232.51
        9024     0.998486     2.093857 -0.0005507451     18234.81
        9025    0.9985907     2.093267 -0.0006422267     18235.94
        9026     0.998801     2.092671 -0.0006904035     18237.73
        9027    0.9991695     2.091897 -0.0006987567     18241.09
        9028      0.99947     2.091095 -0.0006861077     18244.48
        9029    0.9995842     2.090472 -0.0007099392     18247.01
        9030     0.999678     2.089927 -0.0007309688     18249.84
        9031     0.999799     2.089058 -0.0007209869     18252.05
        9032    0.9998156     2.088171 -0.000773465     18253.39
        9033    0.9994319     2.087588 -0.0007701087     18254.48
        9034    0.9990896     2.086833 -0.0007172756     18256.56
        9035    0.9989533     2.085977 -0.0007272971     18259.52
        9036    0.9989166     2.085302 -0.0007255747     18262.58
        9037    0.9988631     2.084679 -0.000676648     18264.91
        9038    0.9986724      2.08393 -0.0006876871     18266.22
        9039    0.9985827     2.083271 -0.0007624706     18267.09
        9040    0.9986359     2.082551 -0.0007791039     18267.88
        9041    0.9988703     2.081629 -0.000787846     18269.62
        9042    0.9992079     2.080814 -0.0008138839     18271.52
        9043    0.9994516     2.080119 -0.0008010318     18273.21
        9044    0.9994882     2.079296 -0.0008288743     18276.06
        9045    0.9992964     2.078425 -0.0008567363     18279.65
        9046    0.9990096     2.077499 -0.0008719243     18282.55
        9047    0.9987401     2.076692 -0.0008763112     18285.08
        9048     0.998613     2.075808 -0.0008866817     18287.77
        9049    0.9985277      2.07492 -0.0009081129     18288.94
        9050     0.998489     2.073952 -0.0009130748     18289.55
        9051    0.9983637      2.07306 -0.0009017785     18291.24
        9052     0.998304     2.072156 -0.0008650611     18293.93
        9053    0.9983008     2.071313 -0.0008974374     18297.21
        9054    0.9982482     2.070492 -0.0009092949      18300.4
        9055    0.9981902      2.06947 -0.0008856832     18302.68
        9056    0.9981088     2.068519 -0.0008955971     18304.14
        9057    0.9980494      2.06777 -0.0008623718     18304.76
        9058    0.9979428     2.066909 -0.0008438324      18305.4
        9059    0.9979573     2.066021 -0.0008500897     18307.03
        9060    0.9980188     2.065143 -0.0008372113     18308.96
        9061     0.998053     2.064369 -0.0008849203     18309.75
        9062    0.9983172      2.06356 -0.0008478562     18310.54
        9063    0.9988173     2.062481 -0.0008475212     18311.72
        9064    0.9992576     2.061752 -0.0008599908     18313.25
        9065    0.9993401     2.060979 -0.000759743     18315.08
        9066    0.9992335      2.06012 -0.0007964196     18317.56
        9067    0.9992734     2.059442 -0.0008040184     18319.71
        9068    0.9993364     2.058566 -0.0007915921     18321.48
        9069    0.9994736     2.057763 -0.0008092504     18324.43
        9070    0.9997587     2.056954 -0.000751143     18327.97
        9071    0.9998654     2.056205 -0.0007629714     18330.11
        9072    0.9998859     2.055562 -0.0007874191     18332.03
        9073    0.9999862     2.054711 -0.0008141585     18334.42
        9074     1.000265     2.053804 -0.0008722998      18336.5
        9075     1.000642     2.052948 -0.0008819637     18338.36
        9076     1.000955     2.052073 -0.0007910739     18339.99
        9077     1.001037     2.051184 -0.000760765     18341.77
        9078     1.000863      2.05064 -0.0007948992     18344.01
        9079     1.000657     2.049905 -0.0007741706     18345.49
        9080     1.000677     2.048893 -0.0008486725     18346.38
        9081     1.000759     2.048087 -0.0008770278     18347.14
        9082     1.000857     2.047245 -0.000816675     18346.97
        9083     1.001104     2.046397 -0.0008313758     18346.62
        9084     1.001416     2.045626 -0.0008450776     18343.58
        9085      1.00179     2.044761 -0.0008017754     18330.39
        9086     1.002123     2.043865 -0.0008173768     18306.54
        9087     1.002078      2.04319 -0.000839864     18286.81
        9088     1.001927     2.042357 -0.0008393203     18278.59
        9089     1.001897     2.041402 -0.0008544036     18271.97
        9090     1.002028     2.040508 -0.0008817852     18247.09
        9091     1.002053     2.039772 -0.0008423462     18201.48
        9092      1.00246      2.03883 -0.0006429836     18151.09
        9093     1.002843     2.038033 -0.0006506064     18065.86
        9094     1.001511     2.037936 -0.0007785647     18052.27
        9095     1.001234      2.03717 -0.0007510588     18184.42
        9096     1.003219     2.035715 -0.0007309243     18216.69
        9097     1.003908     2.035028 -0.0007256207     18118.58
        9098     1.002837     2.035012 -0.0005811726     18090.93
        9099     1.002651     2.034268 -0.0005846235     18185.79
        9100     1.002884     2.033391 -0.0008209562     18266.28
        9101     1.002767      2.03269 -0.0008369827     18292.94
        9102     1.002419     2.031728 -0.0008509707     18312.29
        9103     1.002142      2.03092 -0.0008550132     18333.06
        9104     1.001841     2.029987 -0.0007925271     18345.29
        9105     1.001408      2.02927 -0.0008356551     18353.24
        9106     1.000895     2.028558 -0.0008269315     18362.94
        9107     1.000544     2.027577 -0.0008234407     18378.93
        9108     1.000402     2.026679 -0.0008187155     18396.22
        9109     1.000249     2.025976 -0.0007693276     18406.68
        9110     1.000384     2.025283 -0.0007757898     18413.24
        9111     1.000658       2.0245 -0.0007862991     18417.53
        9112     1.000905     2.023576 -0.0007508624     18420.36
        9113     1.001057     2.022831 -0.0007912816     18422.58
        9114     1.001154      2.02228 -0.0007417741     18425.17
        9115     1.001555     2.021335 -0.000718116     18429.11
        9116     1.001854     2.020609 -0.0007472137     18433.36
        9117     1.001906     2.019958 -0.0007469749     18437.19
        9118     1.001962     2.019291 -0.0007795122     18439.92
        9119     1.001996     2.018347 -0.0007883705     18441.46
        9120     1.002048     2.017491 -0.0007735562     18442.81
        9121     1.002112     2.016805 -0.0007712469      18444.6
        9122     1.002112     2.016197 -0.000751555     18445.63
        9123     1.002027     2.015262 -0.0007427329      18446.2
        9124      1.00182     2.014484 -0.0007617953     18448.32
        9125     1.001415     2.013834 -0.0006844615     18451.28
        9126     1.000994      2.01315 -0.0006727912     18453.85
        9127     1.000667     2.012524 -0.0007185693     18456.19
        9128     1.000569     2.011793 -0.0007613262     18458.06
        9129     1.000694      2.01096 -0.0007655108     18460.76
        9130     1.000718     2.010104 -0.0007079199     18462.94
        9131     1.000762     2.009462 -0.000645176     18464.72
        9132     1.000939     2.008962 -0.0005968945     18466.08
        9133     1.001197     2.008379 -0.0005832186     18467.47
        9134     1.001536     2.007717 -0.0005893763     18469.53
        9135     1.001799     2.007129 -0.0005596734     18472.14
        9136     1.002022     2.006604 -0.0005596912     18473.87
        9137      1.00227      2.00614 -0.0005695947     18474.04
        9138     1.002616     2.005478 -0.0005741297      18474.2
        9139     1.002844     2.004851 -0.0005392614     18475.04
        9140     1.002675     2.004308 -0.0004558614      18475.8
        9141     1.002522     2.003983 -0.000470502     18478.08
        9142     1.002278     2.003655 -0.0004269688     18480.83
        9143      1.00218     2.002969 -0.0004785088     18484.18
        9144     1.002282       2.0026 -0.0005922863     18486.82
        9145     1.002439     2.002069 -0.0005284403     18489.04
        9146     1.002782     2.001285 -0.0006115499     18491.24
        9147     1.003201     2.000855 -0.0006213154     18492.79
        9148     1.003613     2.000154 -0.0005172109     18493.84
        9149     1.003753     1.999584 -0.0005224446     18494.98
        9150     1.003892     1.999217 -0.0004427427      18496.8
        9151     1.003797     1.998765 -0.0004559518     18498.15
        9152     1.003287     1.998383 -0.0005339722     18498.33
        9153     1.002794      1.99776 -0.000529637     18499.45
        9154     1.002367     1.997081 -0.0005361592     18501.27
        9155     1.002089     1.996646 -0.0005572105     18503.48
        9156     1.001873     1.996238 -0.0005623876     18504.76
        9157     1.001827     1.995531 -0.0006058446     18505.79
        9158     1.001929     1.994831 -0.0006512191     18508.22
        9159     1.002045     1.994223 -0.0006253674     18510.75
        9160     1.002152     1.993633 -0.000610817     18513.27
        9161     1.002108      1.99303 -0.0006281395     18515.49
        9162     1.002116     1.992388 -0.0006205813     18517.35
        9163     1.002191     1.991711 -0.0006102756     18519.21
        9164     1.002318     1.991151 -0.0005826742     18522.57
        9165     1.002285     1.990589 -0.0006023892     18525.52
        9166     1.002276     1.990057 -0.0006528842     18526.44
        9167     1.002363     1.989301 -0.000618852     18527.67
        9168     1.002578     1.988539 -0.0006203088     18530.22
        9169     1.002689     1.988113 -0.000668776     18533.54
        9170     1.002396     1.987576 -0.000678079     18536.63
        9171     1.001856     1.986626 -0.0006876124     18538.32
        9172     1.001502     1.985827 -0.0007613515     18539.16
        9173     1.001232     1.985363 -0.0007445836     18539.36
        9174     1.001022      1.98453 -0.0007158255     18539.12
        9175        1.001     1.983648 -0.000784914      18540.2
        9176     1.001047     1.982964 -0.0007349022     18541.35
        9177     1.001194     1.982223 -0.0006414705     18541.57
        9178     1.001424     1.981591 -0.0006394204     18541.84
        9179     1.001453     1.981082 -0.0006355753     18542.31
        9180     1.001452     1.980406 -0.0006222384     18543.68
        9181     1.001523     1.979681 -0.0006862622     18545.16
        9182     1.001379     1.979102 -0.0006914297     18545.91
        9183     1.001146     1.978337 -0.0006508485     18546.11
        9184     1.000896      1.97764 -0.0006519112     18547.02
        9185     1.000664     1.977077 -0.0006053788     18549.26
        9186     1.000641     1.976494 -0.0005958175     18550.72
        9187     1.000792     1.975915 -0.0006159884      18552.4
        9188     1.000788     1.975257  -0.00060927      18554.4
        9189     1.000663     1.974613 -0.0006266352     18554.65
        9190      1.00049     1.974057 -0.0006698302     18554.68
        9191     1.000433     1.973409 -0.0006724957      18556.2
        9192     1.000415     1.972578 -0.000656468        18559
        9193     1.000199     1.971924 -0.0006932397     18561.82
        9194    0.9998651     1.971431 -0.0006502408     18563.36
        9195    0.9998135     1.970636 -0.0006111485      18563.6
        9196    0.9999347     1.969977 -0.0006548401     18563.67
        9197     1.000013     1.969479 -0.0005905121      18564.2
        9198     1.000072     1.968812 -0.0006008337     18565.69
        9199    0.9999887     1.968274 -0.0006604932      18567.2
        9200     1.000078     1.967573 -0.0006568655      18569.5
        9201     1.000304     1.966837 -0.0006537992     18571.06
        9202     1.000606     1.966185 -0.0006237336     18571.71
        9203     1.000849     1.965658 -0.0006313441     18572.74
        9204      1.00104     1.965078 -0.0006231219     18574.51
        9205     1.001129     1.964312 -0.0006546843     18575.68
        9206     1.001184     1.963692 -0.0006803205      18576.6
        9207     1.001411      1.96304 -0.0006918693     18577.86
        9208     1.001823     1.962357 -0.0007176973     18579.16
        9209     1.002157     1.961544 -0.0006902074     18581.47
        9210     1.002272     1.960821 -0.000684641     18584.23
        9211      1.00225     1.960279 -0.0006677375     18586.59
        9212     1.002348     1.959619 -0.0006659738     18589.08
        9213     1.002367     1.958873 -0.0007499713     18590.31
        9214     1.002446     1.958157 -0.0007685911     18591.15
        9215     1.002711     1.957279 -0.0007702935     18592.91
        9216     1.002732     1.956544 -0.0007751434     18594.18
        9217     1.002784     1.955792 -0.000713619     18595.32
        9218     1.003016     1.955057 -0.0006909745     18596.32
        9219     1.003112     1.954424 -0.0006518982     18597.43
        9220     1.003199      1.95378 -0.0006846818     18598.71
        9221     1.003347     1.953184 -0.0007225028     18600.12
        9222     1.003238     1.952318 -0.0006988184     18601.92
        9223      1.00288     1.951534 -0.0007630519     18603.23
        9224     1.002581     1.950985 -0.0007703968     18604.66
        9225     1.002524     1.950132 -0.0007324763     18606.51
        9226     1.002608     1.949236 -0.0007500691     18608.36
        9227     1.002649     1.948604 -0.0007299526     18610.55
        9228     1.002701     1.947985 -0.0007202407     18612.41
        9229     1.002733     1.947212 -0.0007209554     18613.91
        9230      1.00273     1.946355 -0.0007236456     18614.66
        9231     1.002643     1.945721 -0.0007215527     18615.72
        9232     1.002415      1.94509 -0.0007155193     18616.13
        9233     1.002301     1.944326 -0.0007421599     18616.34
        9234     1.002036     1.943493 -0.0007333532     18615.98
        9235     1.001673     1.942752 -0.0007581346     18616.49
        9236     1.001376     1.942157 -0.0007086489     18617.52
        9237     1.001232     1.941294 -0.0006751425     18619.01
        9238     1.001155     1.940659 -0.0006566682     18620.14
        9239     1.001289     1.940051 -0.0006136176     18621.22
        9240     1.001548      1.93953 -0.0006434674     18623.02
        9241     1.001673     1.938839 -0.0006739802      18624.6
        9242     1.001687     1.938085 -0.0007043547     18625.57
        9243     1.001681     1.937356 -0.0007327594     18626.41
        9244     1.001497     1.936713 -0.0007356663     18625.54
        9245     1.001296     1.935908 -0.0007347114     18623.68
        9246     1.001312     1.935142 -0.0006666506     18622.32
        9247     1.001423     1.934417 -0.0006570859     18619.41
        9248     1.001446     1.934046 -0.0007360972     18610.21
        9249     1.001963      1.93328 -0.0006776229      18571.4
        9250      1.00252     1.932198 -0.0006655159     18461.87
        9251     1.001653     1.931706 -0.0006544117     18397.85
        9252     1.000834     1.931384 -0.0006385346     18489.37
        9253     1.001399     1.930662 -0.0006559555     18558.85
        9254     1.002228     1.929644 -0.0007074563     18497.69
        9255     1.002111     1.929082 -0.0006841313     18423.96
        9256     1.001518     1.928554 -0.0006209421     18489.53
        9257     1.001542     1.927926 -0.0006999276      18588.1
        9258     1.001263      1.92716 -0.0007521738     18640.06
        9259     1.000919     1.926283 -0.0007397695     18653.28
        9260     1.000663     1.925545 -0.0007297989     18657.61
        9261     1.000345     1.924967 -0.0006669995     18660.33
        9262     1.000331     1.924241 -0.0006605356     18663.14
        9263     1.000375     1.923615 -0.0006677982     18664.64
        9264     1.000277     1.922903 -0.0006401499     18666.32
        9265     1.000272     1.922295 -0.0006716945     18668.21
        9266      1.00025      1.92168 -0.0006416994     18667.83
        9267     1.000104     1.920928 -0.0006793985      18666.4
        9268    0.9998499     1.920336 -0.0006882176     18666.84
        9269    0.9995856     1.919578 -0.000634929     18668.29
        9270    0.9994093     1.918927 -0.0006723618     18670.16
        9271    0.9992453     1.918388 -0.000648133     18671.12
        9272    0.9993907     1.917647 -0.0006570479     18672.96
        9273    0.9996241     1.916985 -0.0006865192      18675.5
        9274    0.9998205     1.916299 -0.0006439767     18677.23
        9275     0.999968     1.915642 -0.0006175709     18677.32
        9276    0.9999771     1.915071 -0.0005773424     18677.44
        9277     0.999963     1.914515 -0.0005946785     18678.34
        9278     1.000198      1.91399 -0.0006220901     18680.24
        9279     1.000637     1.913263 -0.0006123977     18682.26
        9280     1.000895     1.912583 -0.0006215863     18682.78
        9281     1.001117     1.912065 -0.0006083791     18683.91
        9282     1.001363     1.911503 -0.0006022116     18685.34
        9283     1.001472      1.91083 -0.0006503149     18684.83
        9284     1.001464     1.910174 -0.0006644372     18685.94
        9285     1.001207     1.909464 -0.000625381     18688.45
        9286     1.000712     1.908846 -0.0006339091     18690.31
        9287     1.000129     1.908328 -0.0006305743     18691.81
        9288     0.999627     1.907638 -0.0005911792     18692.96
        9289    0.9994346     1.906942 -0.0006001027     18693.84
        9290    0.9994344     1.906481 -0.0005995663     18694.31
        9291    0.9993435     1.905928 -0.0005783204     18694.63
        9292    0.9991895      1.90524 -0.0006113134     18695.05
        9293     0.999201     1.904628 -0.0006183607     18695.96
        9294    0.9992145     1.904036 -0.0005815889     18697.17
        9295    0.9993507     1.903454 -0.0005612613     18699.01
        9296    0.9995934     1.902914 -0.0005384959     18700.37
        9297    0.9995523     1.902383 -0.0005330457     18701.12
        9298    0.9994647     1.901882 -0.0005330677     18702.62
        9299    0.9995128     1.901322 -0.0005232932     18704.54
        9300    0.9995898     1.900781 -0.0005400697     18706.65
        9301    0.9995602      1.90029 -0.000570148     18708.23
        9302    0.9994119     1.899721 -0.0005871097     18708.35
        9303    0.9994574     1.899042 -0.0005611087     18708.66
        9304    0.9996989     1.898433 -0.0005395841     18709.04
        9305    0.9998673     1.898046 -0.0005219229     18709.16
        9306    0.9999735     1.897563 -0.000542742     18709.55
        9307     1.000198     1.896954 -0.0005997542     18710.57
        9308     1.000499     1.896262 -0.0006388687     18711.76
        9309     1.000692     1.895647 -0.0006378671     18712.57
        9310     1.000649     1.895008 -0.0006089981     18713.14
        9311     1.000644     1.894403 -0.0005975642     18713.51
        9312     1.000758     1.893826 -0.0005751397     18713.41
        9313       1.0009     1.893257 -0.0005492077     18714.07
        9314      1.00104     1.892707 -0.0005489719     18715.73
        9315     1.000882     1.892206 -0.000555772     18716.84
        9316     1.000544      1.89163 -0.0005699619     18718.19
        9317     1.000319     1.891033 -0.0005871637     18720.25
        9318     1.000262     1.890427 -0.0005863494     18722.65
        9319     1.000323     1.889857 -0.0005783861     18724.53
        9320     1.000371     1.889285 -0.0005651306      18724.1
        9321     1.000342      1.88872   -0.0005663      18722.6
        9322     1.000301     1.888167 -0.0005700804     18721.67
        9323     1.000295     1.887592 -0.0005982125     18722.05
        9324     1.000319     1.887004 -0.0006174502     18722.73
        9325      1.00054     1.886327 -0.0006425645     18724.34
        9326     1.000822     1.885697 -0.0006081187      18726.6
        9327     1.001017     1.885022 -0.0005673458     18728.39
        9328     1.001162     1.884572 -0.0005832108     18729.66
        9329     1.001343     1.884058 -0.0005508879     18731.21
        9330     1.001444     1.883364 -0.0005982481     18732.77
        9331     1.001747     1.882818 -0.0006395041     18733.45
        9332     1.002157     1.882179 -0.0005936334      18732.6
        9333     1.002552       1.8815 -0.0006121236     18732.19
        9334     1.002623      1.88099 -0.0005963361     18732.65
        9335     1.002419      1.88037 -0.0005763764      18735.3
        9336     1.001995     1.879794 -0.0006093269     18738.18
        9337      1.00151     1.879194 -0.0006230764     18739.96
        9338     1.001311     1.878552 -0.0006039252     18741.06
        9339     1.001256     1.877877 -0.000601798     18741.26
        9340     1.001372     1.877378 -0.0005926093     18740.66
        9341     1.001756     1.876787 -0.0005601609     18740.05
        9342     1.002217     1.876182 -0.0005862988     18739.77
        9343     1.002546     1.875637 -0.0005919421     18740.01
        9344     1.002746     1.875033 -0.0005783813      18741.5
        9345     1.002924     1.874419 -0.0005888543     18742.76
        9346      1.00295     1.873868 -0.0006346391     18743.21
        9347     1.002788     1.873281 -0.0006571438      18744.4
        9348     1.002761     1.872494 -0.0006711297     18745.39
        9349     1.003016     1.871791 -0.0006910979     18744.34
        9350     1.003368     1.871184 -0.0006135621     18740.49
        9351     1.003608     1.870517 -0.000562796     18737.46
        9352     1.003633      1.87004 -0.0005558762     18739.33
        9353     1.003537     1.869539 -0.0005581818      18742.1
        9354     1.003372      1.86896 -0.0005851863     18743.78
        9355     1.003038     1.868284 -0.0006256706      18745.5
        9356     1.002606     1.867699 -0.0006654106     18749.03
        9357     1.002342     1.867037 -0.0006511713     18752.76
        9358     1.002139     1.866299 -0.0006438854     18754.43
        9359     1.001884     1.865679 -0.000631401     18754.26
        9360      1.00158     1.865124 -0.0006169193     18752.91
        9361     1.001341     1.864511 -0.0006346662     18750.07
        9362     1.001242     1.863831 -0.0006612039     18747.76
        9363     1.001309     1.863141 -0.0006021104     18748.64
        9364     1.001563     1.862479 -0.0005830002     18750.29
        9365     1.001966     1.862103 -0.0005607675     18751.25
        9366     1.002224     1.861499 -0.0005633154     18752.32
        9367     1.001985     1.860898 -0.0006137632     18755.19
        9368     1.001581     1.860226 -0.0005800011     18759.59
        9369     1.001504     1.859648 -0.0006088962     18762.44
        9370     1.001487     1.859179 -0.0006038563     18762.83
        9371     1.001561     1.858462 -0.0005748275      18764.1
        9372     1.001619      1.85781 -0.0006091177     18766.16
        9373     1.001437     1.857348 -0.0006144037     18766.95
        9374     1.001267     1.856742 -0.0005723233     18766.51
        9375     1.001277     1.856004 -0.0005879433     18765.11
        9376     1.001247     1.855521 -0.000605591     18764.48
        9377       1.0013     1.854997 -0.0005471493     18764.98
        9378     1.001566      1.85432 -0.0005805317     18766.53
        9379     1.001781     1.853816 -0.0006180047     18768.46
        9380      1.00189     1.853199 -0.0005801017     18769.58
        9381        1.002     1.852525 -0.0006106803     18770.21
        9382     1.001941        1.852 -0.0006309105     18770.71
        9383     1.001608     1.851373 -0.0006019133     18771.27
        9384     1.001357     1.850675 -0.0006394029     18772.89
        9385     1.001199     1.850117 -0.0006216799     18774.53
        9386      1.00119     1.849442 -0.0005922737      18775.4
        9387     1.001365     1.848886 -0.0006192716     18776.42
        9388     1.001415     1.848306 -0.000644334     18777.64
        9389     1.001437      1.84764 -0.0006232084     18777.21
        9390     1.001506     1.846865 -0.0005987015     18776.08
        9391     1.001395     1.846394 -0.0005924439     18775.21
        9392     1.001162     1.845911 -0.0005595813     18773.93
        9393     1.000967      1.84527 -0.0005897301     18772.75
        9394     1.000899     1.844626 -0.0006258231     18773.34
        9395     1.000655     1.844035 -0.0006336226      18774.7
        9396     1.000127     1.843408 -0.0006008467      18775.8
        9397    0.9995514     1.842736 -0.0006366061     18775.93
        9398    0.9994327     1.842223 -0.0006576443     18776.79
        9399    0.9996777     1.841488 -0.0006236155     18778.09
        9400    0.9997192     1.840777 -0.0006270892     18778.24
        9401    0.9999081     1.840241 -0.0005819428     18778.14
        9402      1.00014     1.839715 -0.0005304071      18778.4
        9403     1.000301      1.83916 -0.0005558635     18780.15
        9404     1.000338     1.838656 -0.0006106319     18781.43
        9405     1.000296     1.838018 -0.000658306     18781.93
        9406     1.000526     1.837272 -0.0006634548     18783.29
        9407     1.000936     1.836527 -0.0006602369     18784.48
        9408     1.001346     1.836002 -0.0006528253     18783.76
        9409      1.00149     1.835377 -0.0006103908     18783.51
        9410     1.001363     1.834661 -0.0006162923     18784.63
        9411     1.001153     1.834086 -0.0006073303     18785.88
        9412     1.001004     1.833537 -0.0006156384     18786.55
        9413     1.000935     1.832947 -0.0005989478      18787.1
        9414     1.000908     1.832198 -0.0005945656     18787.82
        9415     1.000711      1.83169 -0.0006237803      18788.6
        9416     1.000438     1.831158 -0.0006021644     18789.25
        9417     1.000205     1.830452 -0.0006244568     18788.51
        9418    0.9999222      1.82979 -0.0006302434     18786.91
        9419    0.9997743     1.829192 -0.000626251     18785.82
        9420    0.9996612     1.828637 -0.0006135661     18785.24
        9421    0.9994279     1.827947 -0.0006085539     18784.82
        9422    0.9991464     1.827335 -0.0006362072     18783.61
        9423    0.9989107     1.826758 -0.0006220567      18782.7
        9424    0.9987795     1.826093 -0.0006131057     18782.84
        9425    0.9987886     1.825459 -0.0006175152     18783.37
        9426    0.9988928     1.824883 -0.0005621536     18783.47
        9427    0.9987397     1.824288 -0.0005680907     18783.88
        9428    0.9981826     1.823844 -0.0006000806     18783.43
        9429    0.9978615     1.823187 -0.0006113709     18782.48
        9430    0.9976732     1.822483 -0.0006779071     18782.49
        9431    0.9975543     1.821842 -0.0006497861     18783.08
        9432    0.9974623     1.821132 -0.0006050501     18783.67
        9433    0.9972707     1.820588 -0.0005968344     18784.36
        9434    0.9972298     1.820062 -0.0005817569      18784.9
        9435    0.9971614     1.819455 -0.0006087766     18784.57
        9436     0.997074     1.818805 -0.0006199868     18784.77
        9437    0.9971076     1.818152 -0.0006027512      18784.5
        9438    0.9974708     1.817582 -0.0005625253     18784.38
        9439    0.9978779     1.817044 -0.0005486048     18784.48
        9440    0.9980366     1.816555 -0.0005947511     18784.46
        9441    0.9980852     1.815958 -0.0006150536     18784.44
        9442    0.9981733     1.815203 -0.0005965058     18784.47
        9443    0.9982108     1.814584 -0.0006028399     18784.18
        9444    0.9982223     1.814169 -0.0006133587     18782.94
        9445     0.998389     1.813547 -0.000605894     18782.33
        9446    0.9984992      1.81275 -0.0006437678     18782.76
        9447     0.998687      1.81216 -0.0006566041     18783.43
        9448    0.9988611     1.811594 -0.0005601411     18783.85
        9449    0.9990189      1.81092 -0.0005557243     18784.06
        9450    0.9991923     1.810509 -0.0005618484     18783.73
        9451    0.9990985     1.809937 -0.0005445099     18782.88
        9452    0.9987585     1.809347 -0.0006280669     18782.52
        9453    0.9984777     1.808742 -0.0006589186     18781.46
        9454    0.9985565     1.807997 -0.0006762824     18781.18
        9455    0.9988031     1.807302 -0.0006517007     18781.65
        9456    0.9990794     1.806642 -0.0005757215      18780.7
        9457     0.999425     1.806135 -0.0005327431      18779.5
        9458    0.9996429     1.805694 -0.0005196512      18779.3
        9459    0.9994412     1.805171 -0.0005124997     18778.39
        9460    0.9992151     1.804563 -0.0005428311      18778.6
        9461    0.9991063     1.804085 -0.0005913563     18780.31
        9462    0.9990828     1.803523 -0.0006163248     18781.98
        9463    0.9988879     1.802805 -0.0006173007     18782.97
        9464    0.9984828     1.802098 -0.0005676262     18782.99
        9465    0.9980298     1.801616 -0.0005571484     18783.51
        9466    0.9975331     1.801252 -0.0005376547     18784.59
        9467     0.997241     1.800577 -0.0005251241     18785.24
        9468    0.9969293     1.799947 -0.0005828206     18785.06
        9469    0.9966906     1.799516 -0.0005743957     18784.78
        9470    0.9966604     1.798921 -0.0005218368      18784.2
        9471    0.9968297     1.798279 -0.0005346918     18783.47
        9472    0.9969378      1.79786 -0.0005333947     18782.82
        9473    0.9968625     1.797377 -0.0005063837     18781.75
        9474    0.9966344     1.796788 -0.0005238437     18780.82
        9475    0.9962071     1.796253 -0.0005452836     18779.79
        9476    0.9958391     1.795764 -0.0005705906     18778.49
        9477    0.9957613     1.795196 -0.0005873437     18778.16
        9478     0.995789     1.794505 -0.0005884166     18777.79
        9479    0.9960474     1.793904 -0.0005768543     18777.91
        9480    0.9963609     1.793411 -0.0005278959     18777.63
        9481    0.9964207     1.792888 -0.0005595467     18777.15
        9482    0.9962443     1.792394 -0.0005559845     18775.92
        9483    0.9961106     1.791666 -0.000568932     18772.76
        9484    0.9961414     1.791187 -0.0006053133     18764.34
        9485    0.9960953     1.790613 -0.0005669289        18747
        9486    0.9961069     1.789972 -0.0005598339     18736.72
        9487    0.9962456     1.789398 -0.0005633032     18741.06
        9488    0.9962328     1.788947 -0.0005366765     18749.89
        9489    0.9961149     1.788359 -0.0005168938     18758.58
        9490    0.9960042     1.787826 -0.0005667105        18762
        9491    0.9958817     1.787331 -0.0005648619     18753.92
        9492    0.9958291     1.786681 -0.0005424568     18737.84
        9493    0.9959424       1.7861 -0.0005621985     18732.53
        9494    0.9960076     1.785656 -0.0005273531     18738.99
        9495      0.99593     1.785082 -0.0005291117     18749.27
        9496    0.9958393     1.784571 -0.0005528476     18758.59
        9497    0.9956379     1.783984 -0.0005777037      18761.3
        9498    0.9952328     1.783444 -0.0006458261     18760.41
        9499    0.9950988     1.782771 -0.0006870211     18759.82
        9500    0.9950988     1.782771 -0.0006870211     18759.82
