# This file has been produced by extranormal (v 1.0.1 - February 23, 2017)
# O. Roudenko - Synchrotron SOLEIL. Covered by GPL licence.
#Data from HDF File: /nfs/ruche-rock/rock-soleil/com-rock/2022/Projets/20220725_Gilles/op4_cell4_alone/op4_cell4_pos1_close/op4_cell4_pos1_close_0019/op4_cell4_pos1_close_0019_11614.nxs to op4_cell4_pos1_close_0019_11637.nxs
#Time at start=2022-07-27 23:40:34.196
#Time from start (seconds)=64.9771025075
#Sample temperature (C)=nan
# Normalization -------------
# pivot spectrum: LNO_pristine_av1100_00001.txt
# E0=8332.88   Eshift=-0.232184199932
# E0_pivot = 8349.6
# pre-edge params: from E0_pivot-240.0 to E0_pivot-50.0
# pre-edge range: [8109.6, 8299.6]
# post-edge params: from E0_pivot+70.0 to E0_pivot+1155.0
# post-edge range: [8419.6, 9500.0]
# I jump at E0_pivot = 0.799350355969
# shifted energy	normalized	reference	ref.derivative	I0
        8060  0.001910438     1.041436 -0.0004321254     14939.43
        8065 0.0007768193     1.039274 -0.0004395917     14959.11
        8070 0.0007793856     1.037028 -0.000444191     14985.16
        8075 -0.0008144774     1.034587 -0.0004505221     15007.08
        8080 0.0002864061     1.032552 -0.0004564956     15029.02
        8085  0.001211529     1.030263 -0.0004476499     15048.33
        8090  0.001519774     1.027898 -0.0004622651      15070.7
        8095  0.001148464     1.025634 -0.0004534745     15094.34
        8100  0.000915497     1.023307 -0.0004432171     15116.62
        8105 0.0003071162     1.021194 -0.0004414035     15139.37
        8110 1.334989e-06     1.019034  -0.00042237     15158.46
        8115 -0.0004948093     1.016806 -0.0004282892     15177.65
        8120 9.174467e-05      1.01486 -0.0004184045     15197.82
        8125 1.564844e-05     1.012628 -0.000404193     15219.73
        8130 3.166055e-05     1.010666 -0.0004157291     15241.35
        8135  0.002348926     1.008722 -0.0004071665      15263.1
        8140 -0.0001145908     1.006545 -0.0004148106     15282.12
        8145 -0.001050093     1.004485 -0.0004169158      15303.5
        8150 -0.001325835      1.00237 -0.0004150304     15321.77
        8155 -0.0007136913     1.000384 -0.0004286013     15344.44
        8160 0.0004532131    0.9982443 -0.000418168      15363.7
        8165  0.001979743    0.9959126 -0.0004254629     15391.79
        8170  0.002587901    0.9940062 -0.000434895     15409.19
        8175 0.0007760645    0.9918746 -0.0004188081     15432.15
        8180 0.0008288799    0.9895464 -0.0004313396     15451.57
        8185 -8.288807e-05    0.9875364 -0.0004273291     15471.57
        8190 -0.001044594    0.9853794 -0.0004087462     15494.69
        8195 -0.0001532217     0.983328 -0.0004071954     15516.88
        8200 1.105653e-05    0.9813715 -0.0004021338     15533.16
        8205 -0.000813016    0.9793925 -0.0004165124     15556.32
        8210 -0.001679219    0.9773368 -0.0004127429     15573.56
        8215 -0.001534043    0.9749977 -0.0004184171     15594.46
        8220 -0.001101837    0.9731166 -0.0004163191     15617.66
        8225 -0.0008165269    0.9710241 -0.0003961177     15639.74
        8230 -0.0006985374    0.9690104 -0.0003988509     15659.52
        8235 -0.001222633    0.9670754 -0.0003931165     15676.38
        8240 -0.0008646423    0.9651396 -0.0003848219     15698.89
        8245  0.001517727    0.9631618 -0.0003886041     15720.49
        8250 0.0001347236     0.961314 -0.0003828485     15738.49
        8255 -0.0001766134    0.9593033 -0.0003695045     15757.23
        8260 -0.0009791082    0.9574826 -0.0003575302      15777.3
        8265 0.0002202214    0.9557717 -0.0003433728     15797.96
        8270  0.002078593    0.9541633 -0.0003394141     15819.31
        8275 -5.272223e-05    0.9524358 -0.0003289236     15835.53
        8280 -9.332524e-05    0.9506944 -0.0003300893     15854.92
        8285 0.0005949943    0.9491933 -0.0003135295     15867.35
        8290 0.0001791819    0.9475616 -0.0002917386     15879.94
        8295   0.00134023    0.9461652 -0.0002821329     15890.37
        8300  0.003994791    0.9449677 -0.0001753552     15821.04
      8300.2  0.003931597    0.9450197 -9.115862e-06     15810.58
      8300.4  0.003893757    0.9450115 -0.0002057715     15801.43
      8300.6  0.003925307    0.9449197 -0.0002036499     15793.52
      8300.8  0.003990455    0.9448031 -0.0002187633     15787.91
        8301  0.003985035    0.9448568 -7.55241e-05     15783.42
      8301.2  0.004052605    0.9448365 -1.420557e-06     15780.53
      8301.4  0.004067497    0.9448593 -0.0001951542      15778.5
      8301.6  0.003985768    0.9448019 -0.0003344416     15776.77
      8301.8  0.003937029    0.9447007 -0.0004629083     15775.82
        8302  0.003931047     0.944569 -0.0005233979     15775.05
      8302.2  0.004056344     0.944489 -0.000526561     15774.81
      8302.4  0.004092295    0.9443832 -0.0004896677     15773.63
      8302.6    0.0041563    0.9442794 -0.0003897696     15772.15
      8302.8  0.004244666    0.9441772 -0.0002008198      15769.6
        8303   0.00436358    0.9441772  1.47298e-05     15766.42
      8303.2  0.004460358    0.9442226 5.587678e-05     15761.95
      8303.4  0.004527842    0.9442912 6.745067e-05     15755.94
      8303.6  0.004688582    0.9442219 -8.493976e-05     15748.33
      8303.8  0.004778226    0.9442311 -0.0002938887        15738
        8304   0.00500675    0.9441546 -0.0002330628     15725.57
      8304.2  0.005265434    0.9440561 -0.0003110866     15709.16
      8304.4  0.005545618    0.9440355 -0.0003675525     15687.57
      8304.6  0.005972728    0.9439823 -0.0003308878      15660.3
      8304.8  0.006506934    0.9438606 -0.0005501692     15624.74
        8305  0.007032002    0.9437914 -0.0006593995     15577.67
      8305.2  0.007748503    0.9435953 -0.0006101948     15520.11
      8305.4  0.008342624    0.9434547 -0.0005907265     15451.72
      8305.6  0.008727697    0.9433724 -0.0002093221     15375.99
      8305.8  0.008826316    0.9433188  1.64234e-05     15300.74
        8306   0.00855477    0.9434279 0.0003722226     15230.87
      8306.2  0.008075887    0.9434679 0.0005827176     15172.81
      8306.4  0.007539609    0.9436702 0.0006531302     15132.12
      8306.6  0.006883137     0.943785 0.0006659024     15110.22
      8306.8  0.006167662    0.9439504 0.0006127081     15108.67
        8307  0.005662874    0.9440006 0.0005513449     15126.73
      8307.2  0.005153788    0.9441604 0.0004101323     15158.03
      8307.4  0.004777058    0.9442261 0.0006582566     15199.39
      8307.6  0.004380774    0.9442785  0.000644968     15248.73
      8307.8  0.003942715    0.9445272 0.0007625475     15303.42
        8308  0.003626655    0.9446763 0.0007631298     15361.76
      8308.2  0.003320701    0.9448361 0.0003469027     15422.64
      8308.4  0.003165536     0.944889 6.246598e-05      15486.6
      8308.6   0.00311302    0.9448047 -0.0001904504     15552.88
      8308.8  0.003127999    0.9447263 -0.0003432111     15617.53
        8309  0.003363085    0.9446837 -0.0004801239     15677.61
      8309.2   0.00379932    0.9446144 -0.0006384372     15727.66
      8309.4  0.004318631    0.9444206 -0.0008317349     15766.84
      8309.6  0.004895119    0.9442156 -0.0009036641     15792.78
      8309.8  0.005617962    0.9440183 -0.0008092645     15805.84
        8310   0.00603629    0.9438915 -0.0005763201     15807.21
      8310.2  0.006335927    0.9437732 -0.0003505846     15801.71
      8310.4  0.006528379    0.9437545 -0.0001368743     15793.93
      8310.6  0.006626257    0.9437379 6.433238e-05     15788.03
      8310.8  0.006620314     0.943782 -8.039264e-05     15785.49
        8311   0.00651362    0.9438247 -0.0001762717     15787.36
      8311.2  0.006406771    0.9436902 -0.0003521582     15793.17
      8311.4  0.006462939    0.9435969 -0.0004029814     15799.61
      8311.6  0.006769018    0.9435003 -0.0001788533     15802.32
      8311.8  0.007045783    0.9435023 0.0001185508     15796.07
        8312  0.007267821    0.9435471 0.0004531557     15784.31
      8312.2  0.007347699    0.9436917 0.0006980018     15770.19
      8312.4  0.007284078    0.9438628 0.0006962867     15755.89
      8312.6  0.007158432    0.9440607  0.000467863      15743.5
      8312.8  0.007012052    0.9441041 -5.464263e-05     15733.63
        8313  0.007115975     0.944066 -0.0005524905     15726.48
      8313.2  0.007517372    0.9438191 -0.0007034884      15716.2
      8313.4  0.008059693    0.9436187 -0.0007837161     15694.18
      8313.6  0.008694586    0.9435414 -0.0005758123     15657.93
      8313.8  0.009526931     0.943439 -0.0003148082     15603.51
        8314    0.0102675    0.9433584 -0.0002666935     15532.47
      8314.2   0.01085066    0.9433669 -1.63688e-05     15452.46
      8314.4    0.0111535     0.943328 0.0004759982     15369.86
      8314.6   0.01097939    0.9434259 0.0008737465        15294
      8314.8   0.01050577    0.9437392  0.001212426     15231.26
        8315  0.009820002    0.9440659  0.001506554     15187.09
      8315.2   0.00900379    0.9442979  0.001527287     15167.12
      8315.4  0.008264322    0.9446312  0.001260386     15169.65
      8315.6   0.00761009    0.9449611  0.001031547     15189.37
      8315.8  0.007176569    0.9450742 0.0007090095     15222.36
        8316  0.006937046    0.9451232 0.0004871688     15262.52
      8316.2  0.006744669    0.9451984 0.0005758236     15304.98
      8316.4  0.006547928    0.9453508 0.0006746398     15348.28
      8316.6  0.006352295    0.9455348 0.0007852574     15391.97
      8316.8  0.006174349    0.9456629 0.0007717845     15436.04
        8317  0.006080684    0.9458266 0.0005609387     15481.61
      8317.2  0.005994509    0.9459682 0.0003866323     15527.06
      8317.4  0.005972068    0.9459836 0.0001887601     15572.72
      8317.6   0.00600057    0.9459722 3.390357e-05     15617.98
      8317.8  0.006135462    0.9459776 3.794571e-05     15662.25
        8318  0.006400065    0.9459953 0.0001495092     15703.37
      8318.2  0.006678633    0.9460139  0.000243702     15738.62
      8318.4  0.006864551    0.9460918 0.0003453774     15768.47
      8318.6   0.00714159    0.9461725 0.0004053167     15794.13
      8318.8  0.007358056    0.9462716 0.0003865157     15815.46
        8319  0.007607163    0.9463382 0.0004684301     15833.79
      8319.2   0.00780442     0.946401 0.0004450154     15848.88
      8319.4  0.008069903    0.9465473 0.0005765459     15861.32
      8319.6  0.008258015    0.9466277 0.0006269745     15872.18
      8319.8  0.008380904    0.9467994 0.0005859438     15881.72
        8320  0.008448052    0.9469026 0.0006693552     15890.38
      8320.2  0.008540384     0.947016  0.000702335     15898.17
      8320.4  0.008626325    0.9471631 0.0009430082     15904.86
      8320.6  0.008641721    0.9473613  0.001025899     15910.89
      8320.8  0.008743647     0.947657  0.001139066     15916.64
        8321  0.008796981    0.9478368  0.001212099     15921.97
      8321.2  0.008823506    0.9480744  0.001106207     15927.02
      8321.4  0.008866921     0.948331  0.001229779     15932.05
      8321.6  0.008882512     0.948542   0.00105655     15936.85
      8321.8  0.008898321    0.9488206  0.001020299     15941.53
        8322  0.009038521    0.9489196  0.001155297     15947.41
      8322.2   0.00907879    0.9491472  0.001133624     15952.47
      8322.4  0.009092847    0.9494662  0.001300356     15957.82
      8322.6  0.009218681    0.9497275  0.001438753     15963.53
      8322.8  0.009291889    0.9499599  0.001501013     15970.09
        8323  0.009309108    0.9502982   0.00165634      15976.9
      8323.2  0.009424439     0.950667  0.001832608     15985.16
      8323.4  0.009487389    0.9510526  0.001830993     15992.96
      8323.6  0.009562904     0.951426  0.001881633     16000.84
      8323.8  0.009669053     0.951763  0.001810468     16008.87
        8324  0.009747486    0.9521723  0.001953068     16015.78
      8324.2  0.009968476    0.9525009   0.00200793     16022.19
      8324.4   0.01017781    0.9529885  0.002066272     16027.75
      8324.6   0.01036048    0.9533694   0.00222413     16031.96
      8324.8   0.01046561    0.9538253  0.002229216     16035.34
        8325   0.01067079    0.9542802  0.002477717     16038.24
      8325.2    0.0109142    0.9547718  0.002585264     16040.89
      8325.4    0.0111112    0.9553515  0.002734398     16042.67
      8325.6   0.01121215    0.9558935  0.003003337     16043.83
      8325.8   0.01140806    0.9564678  0.003196911     16045.27
        8326   0.01163138    0.9571745  0.003514132     16047.01
      8326.2   0.01191522    0.9579091  0.003871615     16048.67
      8326.4   0.01206335    0.9587049  0.004148503     16049.47
      8326.6   0.01214964     0.959565  0.004427266     16050.47
      8326.8   0.01219895    0.9604933  0.004713051     16050.96
        8327   0.01233981    0.9614509  0.004819063        16052
      8327.2   0.01239301    0.9624753  0.005144482      16052.8
      8327.4   0.01250841    0.9634203  0.005515789     16053.88
      8327.6   0.01262928    0.9646089  0.005897254     16054.95
      8327.8   0.01282259    0.9658635  0.006431626     16056.19
        8328   0.01295677    0.9671931  0.006824623     16057.32
      8328.2   0.01311424    0.9685656  0.007334822     16058.33
      8328.4   0.01327809    0.9700686  0.007799977     16059.28
      8328.6   0.01346268    0.9717314  0.008527394     16060.13
      8328.8   0.01364729    0.9734331  0.009349728     16060.74
        8329   0.01388438    0.9753875   0.01031219      16061.7
      8329.2   0.01416928    0.9775484   0.01146467     16062.97
      8329.4    0.0144413    0.9799811   0.01280247     16064.12
      8329.6   0.01464249    0.9826048   0.01433586     16064.55
      8329.8   0.01494851    0.9856295    0.0164478     16065.71
        8330   0.01518717    0.9890171   0.01926878     16065.96
      8330.2    0.0154967    0.9931394   0.02244678     16066.57
      8330.4   0.01591176    0.9980198   0.02625733      16067.5
      8330.6   0.01640922     1.003587   0.03083529     16068.86
      8330.8   0.01698458     1.010023   0.03692727     16069.98
        8331   0.01766368     1.017808   0.04480764     16070.87
      8331.2   0.01839667     1.027562   0.05508037     16071.89
      8331.4   0.01914098     1.039433   0.06649538      16072.8
      8331.6   0.01987891     1.054087   0.07868145     16072.48
      8331.8   0.02100733     1.071004   0.09185577     16073.28
        8332   0.02223826     1.090507    0.1051632      16073.6
      8332.2   0.02365435     1.112918    0.1180621     16073.97
      8332.4   0.02532352     1.138218      0.12932     16074.59
      8332.6   0.02711544     1.165454     0.137989     16074.07
      8332.8   0.02924974     1.193963    0.1438015     16074.25
        8333   0.03171227     1.223309    0.1472294     16073.85
      8333.2   0.03432425     1.253259    0.1481565     16073.34
      8333.4   0.03713648     1.283237    0.1463296     16073.37
      8333.6   0.03996399     1.312488    0.1432456     16073.52
      8333.8   0.04278241     1.340373    0.1391974     16073.39
        8334   0.04551899     1.367855    0.1342303     16072.96
      8334.2   0.04814741     1.394595    0.1282614     16072.77
      8334.4   0.05031926     1.419872     0.120703     16072.57
      8334.6   0.05201858     1.442982    0.1118749     16072.74
      8334.8   0.05320928     1.464418     0.102801     16072.95
        8335   0.05368912     1.484095   0.09453454     16072.69
      8335.2   0.05388207     1.502113    0.0865385     16073.13
      8335.4   0.05370729     1.518609   0.07800362      16073.1
      8335.6   0.05342915     1.533649   0.07024042     16074.08
      8335.8   0.05297866     1.546498   0.06317538     16073.85
        8336   0.05269929     1.558305   0.05682358     16074.54
      8336.2   0.05250801      1.56915   0.05208712     16075.06
      8336.4   0.05253114     1.579107   0.04803236     16075.74
      8336.6   0.05275881     1.588167   0.04460106     16076.56
      8336.8   0.05319228     1.596731   0.04197872     16077.61
        8337   0.05389362      1.60483   0.04068267     16078.95
      8337.2     0.054716      1.61269   0.04071622     16079.77
      8337.4   0.05577013     1.620714   0.04210596     16080.97
      8337.6   0.05696017     1.629304   0.04454583      16081.6
      8337.8   0.05838478     1.638515   0.04756451     16082.83
        8338   0.06001156     1.648327   0.05110272     16084.35
      8338.2   0.06177928     1.658765   0.05464363     16085.48
      8338.4   0.06376129     1.670186   0.05802146     16087.34
      8338.6   0.06580405      1.68223   0.06112126     16087.97
      8338.8   0.06805892     1.694744    0.0631694     16088.88
        8339   0.07055388     1.707662   0.06419838     16089.86
      8339.2   0.07328857     1.720722   0.06461009     16091.01
      8339.4   0.07625008     1.733589    0.0639867      16091.8
      8339.6   0.07948262     1.746432   0.06255317     16092.42
      8339.8   0.08301807     1.758852   0.06085689     16093.17
        8340   0.08681429     1.770765    0.0596116     16093.41
      8340.2   0.09102416     1.782274   0.05845424     16094.29
      8340.4   0.09565105     1.794122   0.05786178      16094.7
      8340.6    0.1008714     1.805615   0.05728294     16095.09
      8340.8    0.1066779     1.817054   0.05657194     16095.96
        8341    0.1129887     1.828101   0.05717203     16096.61
      8341.2    0.1201831     1.839379   0.05895342     16096.95
      8341.4    0.1282822     1.851353   0.06215056     16097.15
      8341.6    0.1374549     1.864217   0.06523865     16097.47
      8341.8    0.1479054     1.877821   0.06820002     16097.94
        8342    0.1591913      1.89157   0.07177377     16098.45
      8342.2    0.1715387     1.905913   0.07626285     16099.51
      8342.4    0.1850472     1.921636   0.08186287     16100.48
      8342.6    0.2002526     1.938831   0.08816179     16100.91
      8342.8    0.2165619      1.95706   0.09342486     16101.76
        8343    0.2337282     1.976442   0.09810737     16102.54
      8343.2    0.2513244     1.996376     0.102761     16102.83
      8343.4    0.2697773     2.017317    0.1066793     16103.55
      8343.6    0.2887594     2.039269    0.1104601     16104.07
      8343.8    0.3079009     2.061786    0.1137188     16105.04
        8344    0.3272496     2.084744     0.116826     16105.39
      8344.2     0.346651     2.108292     0.119809     16105.63
      8344.4    0.3661418      2.13273    0.1228379     16106.27
      8344.6    0.3859235     2.157633    0.1252559     16106.62
      8344.8    0.4056457     2.183014    0.1267006     16107.14
        8345      0.42533     2.208497    0.1288531     16107.38
      8345.2    0.4451306      2.23409    0.1309797     16107.73
      8345.4    0.4656126     2.260715    0.1330278     16108.36
      8345.6    0.4865456     2.287798    0.1339493     16109.22
      8345.8    0.5080389     2.314919    0.1340184     16110.34
        8346    0.5292504      2.34125    0.1332611     16111.15
      8346.2    0.5510522      2.36793    0.1321388     16112.38
      8346.4    0.5733416     2.394407    0.1316642     16113.33
      8346.6    0.5965967      2.42063    0.1298316     16114.18
      8346.8    0.6204461     2.446581    0.1257601     16115.26
        8347    0.6445687     2.471795    0.1209617     16116.49
      8347.2    0.6681151     2.495015    0.1159959     16116.57
      8347.4    0.6923563       2.5174    0.1095674     16117.14
      8347.6    0.7174899     2.539378    0.1035702     16118.13
      8347.8    0.7434348     2.559449   0.09644745     16119.65
        8348    0.7697141     2.577871   0.08704408     16119.81
      8348.2    0.7953622     2.594558   0.07737819     16120.11
      8348.4    0.8206126     2.609013   0.06830048     16119.64
      8348.6    0.8459056     2.621352   0.05927458     16119.28
      8348.8     0.871652     2.632511   0.05067862     16119.49
        8349    0.8976561     2.641977   0.04302711        16119
      8349.2    0.9236131     2.649556   0.03442973     16118.14
      8349.4    0.9497472     2.655773   0.02615128     16118.21
      8349.6     0.976322     2.660055   0.02029483     16117.87
      8349.8     1.003486     2.662898   0.01418631     16117.85
        8350     1.031046     2.665792  0.009782707     16117.88
      8350.2     1.059648     2.667122  0.005532129      16118.4
      8350.4     1.089023     2.667881 0.0006567473      16118.8
      8350.6     1.118799     2.667324 -0.002937995     16119.33
      8350.8     1.149479     2.666317 -0.006304417     16119.42
        8351     1.180855     2.664772 -0.009085263     16119.59
      8351.2     1.212422     2.662838  -0.01070626     16119.95
      8351.4     1.243908     2.660056  -0.01174778     16119.95
      8351.6     1.275434     2.657752  -0.01376008     16120.01
      8351.8     1.307699     2.655374  -0.01336726     16120.64
        8352     1.339798      2.65183  -0.01488603     16120.88
      8352.2     1.370912     2.649362  -0.01584408     16121.08
      8352.4     1.400782     2.645844  -0.01531483      16121.1
      8352.6     1.429631     2.642698  -0.01546859     16121.08
      8352.8     1.457902     2.639578  -0.01263219     16121.48
        8353     1.484866     2.636987  -0.01002538     16121.85
      8353.2     1.509693     2.635738 -0.006660045     16122.17
      8353.4     1.530744     2.634678 -0.002299164     16122.36
      8353.6     1.548571      2.63425 0.0004203878     16122.78
      8353.8      1.56268     2.635148  0.004768982     16123.25
        8354     1.572429     2.636074   0.00953201     16123.38
      8354.2     1.577336     2.638493   0.01384993     16123.74
      8354.4     1.577214     2.641875   0.01840591     16124.29
      8354.6     1.571507     2.646228   0.02331033     16125.14
      8354.8     1.560908     2.650799   0.02755158     16126.05
        8355     1.546018     2.657142   0.03156645     16127.23
      8355.2     1.526733     2.663917   0.03494765     16127.82
      8355.4     1.503926     2.671481   0.03763855     16128.89
      8355.6     1.478513     2.678757   0.03903337     16129.69
      8355.8     1.450997     2.687252   0.03888989     16130.65
        8356     1.421452     2.695143    0.0400431     16131.29
      8356.2      1.39149     2.702593   0.03940692     16131.91
      8356.4     1.361448     2.710791   0.03916659      16132.9
      8356.6     1.331835     2.718778   0.03842571     16134.23
      8356.8     1.302424     2.726477   0.03517927     16134.79
        8357     1.273944     2.733333   0.03113058     16135.73
      8357.2     1.246891     2.738935   0.02623833     16136.23
      8357.4     1.222664     2.743682   0.02184848     16137.49
      8357.6     1.200054     2.747467   0.01664549     16138.29
      8357.8      1.17931     2.750812   0.01132166      16139.5
        8358     1.160078     2.752251  0.006317028     16140.12
      8358.2     1.142851      2.75274    0.0010613     16141.34
      8358.4     1.127549     2.752521  -0.00312327     16142.16
      8358.6     1.114388     2.751661  -0.00686971     16142.34
      8358.8     1.102588     2.749753  -0.01083338     16143.59
        8359     1.092114     2.747244  -0.01447086     16144.25
      8359.2     1.083006     2.743854  -0.01706311     16145.18
      8359.4     1.075223     2.740084  -0.01952645     16145.85
      8359.6     1.068562     2.736102  -0.02129374     16146.34
      8359.8     1.063071     2.731623  -0.02145022     16147.06
        8360     1.058526     2.726819  -0.02199439      16147.9
      8360.2     1.054276     2.722924  -0.02145965     16148.12
      8360.4     1.050606     2.718507  -0.02101086     16148.52
      8360.6     1.047475     2.714455  -0.02098426     16149.28
      8360.8     1.044632      2.71001  -0.02021381     16150.03
        8361     1.042138     2.706137  -0.01937949      16151.5
      8361.2     1.039842     2.702336  -0.01819055     16152.15
      8361.4     1.037658     2.698952  -0.01799433     16152.91
      8361.6     1.035558     2.695458  -0.01652244     16153.77
      8361.8     1.033508     2.691741  -0.01708762     16154.65
        8362      1.03137     2.689118   -0.0176758     16155.13
      8362.2     1.029342     2.685281  -0.01664418     16155.85
      8362.4     1.027462     2.681317  -0.01785297     16156.79
      8362.6     1.025639     2.678426  -0.01758837     16157.76
      8362.8     1.023582     2.674835   -0.0173428     16158.31
        8363     1.021636     2.671211  -0.01959673     16159.46
      8363.2      1.01973     2.667443  -0.02105937     16161.38
      8363.4     1.017595     2.662749  -0.02240203     16162.31
      8363.6     1.015707     2.657988  -0.02344978     16163.31
      8363.8     1.013958     2.653289  -0.02324498     16164.29
        8364     1.012279     2.648683  -0.02319781     16165.39
      8364.2     1.010712     2.644153  -0.02340651     16166.17
      8364.4     1.009408      2.63943  -0.02345211     16167.01
      8364.6     1.008191     2.634564  -0.02351648      16167.8
      8364.8     1.007405     2.629922  -0.02333556     16168.86
        8365     1.006847      2.62534  -0.02346047     16170.05
      8365.2     1.006615     2.620761   -0.0229229     16171.04
      8365.4     1.006848     2.615796  -0.02230382     16172.17
      8365.6     1.007415     2.611583  -0.02044311      16173.4
      8365.8     1.008269     2.607496   -0.0185098      16174.1
        8366     1.009673     2.604407  -0.01675396     16175.81
      8366.2      1.01128     2.600988   -0.0152113     16176.51
      8366.4     1.013203      2.59818  -0.01369976     16177.79
      8366.6     1.015575     2.595327  -0.01209121     16178.91
      8366.8     1.018038     2.593447  -0.01059684     16180.15
        8367     1.020684     2.591315 -0.009187837     16180.83
      8367.2     1.023522     2.589703 -0.008606444     16181.81
      8367.4     1.026519     2.587977 -0.007713934     16182.74
      8367.6     1.029528     2.586562 -0.007408657     16183.76
      8367.8     1.032419     2.585144 -0.006525387     16185.01
        8368     1.035269     2.583776  -0.00598986     16185.95
      8368.2     1.038038     2.582757 -0.005656142     16186.66
      8368.4     1.040674      2.58177 -0.004751351     16187.84
      8368.6     1.043006     2.580619 -0.004329247     16189.53
      8368.8     1.044832     2.579975 -0.004877144     16190.75
        8369     1.046315     2.579293 -0.003279081     16191.97
      8369.2     1.047486     2.577868 -0.002612292     16193.13
      8369.4     1.048075     2.577995 -0.001764906     16193.68
      8369.6     1.048213     2.577885 0.0001481162     16194.39
      8369.8     1.047735     2.577882 0.0001499137     16195.58
        8370     1.046865     2.577987 0.0008846348     16196.45
      8370.2     1.045494     2.578115  0.002009169     16196.88
      8370.4     1.043628     2.578593  0.002809171      16197.5
      8370.6     1.041269     2.579489    0.0041252     16198.46
      8370.8     1.038623     2.580234  0.005123559     16199.18
        8371     1.035605     2.581416  0.005636225        16200
      8371.2     1.032354     2.582691   0.00673598     16200.47
      8371.4     1.028871     2.583998   0.00758844     16201.09
      8371.6     1.025096     2.585623  0.008417036      16202.1
      8371.8     1.021072     2.587486   0.01019671      16202.7
        8372     1.017043     2.589425   0.01149773     16203.78
      8372.2     1.012893     2.592155   0.01411328     16204.86
      8372.4     1.008601     2.594821     0.015078      16205.7
      8372.6     1.004106     2.598777   0.01597449      16206.2
      8372.8     0.999673     2.601487   0.01652732      16207.1
        8373    0.9950911     2.604935   0.01695392        16208
      8373.2    0.9905229     2.608043   0.01834042     16208.61
      8373.4    0.9858211      2.61234   0.01925208     16209.43
      8373.6    0.9809731      2.61616   0.02137932     16209.75
      8373.8    0.9760855     2.620336    0.0215752     16210.46
        8374    0.9712533     2.625146   0.02226088     16210.99
      8374.2    0.9662974       2.6296   0.02313441     16211.12
      8374.4    0.9613461     2.633968   0.02361745      16211.8
      8374.6    0.9562264     2.638844   0.02459659     16212.58
      8374.8    0.9508994      2.64404   0.02479065     16213.09
        8375    0.9455416     2.649277   0.02553937     16213.45
      8375.2    0.9401903     2.653801   0.02568441      16213.6
      8375.4    0.9350051     2.659275   0.02599498     16214.36
      8375.6    0.9297748     2.664588    0.0272626     16215.16
      8375.8     0.924393     2.670073   0.02737973     16215.57
        8376    0.9190326     2.675611   0.02778272     16216.46
      8376.2    0.9138385     2.681179   0.02795122     16217.29
      8376.4    0.9087005     2.686814   0.02890155     16218.11
      8376.6    0.9037832     2.692434   0.02970755     16219.13
      8376.8    0.8988472     2.698732   0.03058755     16220.41
        8377     0.894036     2.704945   0.03116155     16221.39
      8377.2    0.8893964     2.711284   0.03060485     16222.26
      8377.4    0.8851373     2.717364   0.03026825     16223.08
      8377.6    0.8810892     2.723216   0.02930608     16224.24
      8377.8    0.8771786      2.72916   0.02942892     16225.13
        8378    0.8732893     2.734729   0.03023972     16225.72
      8378.2    0.8695566     2.740907   0.02983522     16226.53
      8378.4     0.866139     2.747408   0.03020956     16227.83
      8378.6    0.8626804     2.753028   0.02990136     16227.62
      8378.8    0.8593552     2.758896   0.02870161     16228.11
        8379    0.8562205     2.764828   0.02828667     16229.41
      8379.2    0.8532182     2.770369   0.02722963      16229.8
      8379.4    0.8503189     2.775657   0.02671187     16230.82
      8379.6    0.8474373      2.78068   0.02621993     16231.41
      8379.8    0.8446301     2.786197   0.02510114     16232.67
        8380    0.8418725     2.791345   0.02456849     16233.06
      8380.2      0.83938     2.795738   0.02206503     16234.13
      8380.4    0.8370084     2.800335   0.02044116      16234.9
      8380.6    0.8347291     2.803849   0.01927652     16235.99
      8380.8     0.832524     2.807698   0.01765864     16236.67
        8381    0.8303386      2.81116   0.01628077     16237.42
      8381.2    0.8282477     2.814462   0.01452742      16237.9
      8381.4    0.8264351     2.816874   0.01213066      16238.9
      8381.6    0.8246612      2.81932  0.009851746     16239.45
      8381.8    0.8230466     2.820864  0.008119875     16240.25
        8382    0.8214094     2.822343   0.00574856      16241.2
      8382.2    0.8199074      2.82337  0.004433316     16241.69
      8382.4    0.8184994     2.823919  0.002513919     16242.43
      8382.6    0.8172007     2.824411 0.0008894805     16243.35
      8382.8    0.8161303     2.824354  -0.00109521     16244.59
        8383     0.815125     2.824081 -0.002826963     16245.51
      8383.2    0.8143668     2.823043 -0.004845447     16246.55
      8383.4    0.8135574     2.822149 -0.007343717     16247.44
      8383.6    0.8129279     2.820478 -0.008346276     16248.46
      8383.8    0.8124737     2.818207  -0.01053416     16248.55
        8384    0.8120983     2.816366  -0.01193929     16248.95
      8384.2    0.8119116     2.813722  -0.01277782      16249.7
      8384.4    0.8118805     2.810926  -0.01470654     16250.79
      8384.6    0.8119466     2.807984  -0.01560769     16251.55
      8384.8    0.8119976       2.8046  -0.01795863     16251.97
        8385    0.8123273     2.801236  -0.01928512      16252.6
      8385.2    0.8127101      2.79656  -0.02058717     16253.13
      8385.4    0.8131743     2.792556  -0.02221994     16254.19
      8385.6    0.8136674     2.788131  -0.02302137     16254.51
      8385.8    0.8144586      2.78346  -0.02473116     16255.33
        8386     0.815211     2.778142  -0.02620259     16255.88
      8386.2     0.816133     2.772771  -0.02687957     16256.59
      8386.4    0.8171558     2.767169  -0.02687827     16256.95
      8386.6    0.8181583     2.761956  -0.02761175     16257.75
      8386.8    0.8192434      2.75664   -0.0285121     16258.18
        8387      0.82051     2.750682  -0.03008818     16258.69
      8387.2    0.8219103     2.744359   -0.0311019     16259.88
      8387.4    0.8234185     2.737886  -0.03125641     16261.12
      8387.6    0.8248825     2.731758  -0.03130257     16261.82
      8387.8    0.8264399     2.725677   -0.0307483     16262.63
        8388    0.8280813     2.719317  -0.03086264     16263.55
      8388.2    0.8296506     2.713287  -0.03010981     16263.98
      8388.4    0.8313255     2.707068  -0.02987381     16264.91
      8388.6    0.8329262     2.701589   -0.0299244     16265.56
      8388.8    0.8346141     2.695418  -0.02984467     16266.46
        8389     0.836315     2.689347  -0.02991124     16267.39
      8389.2    0.8380602     2.683193  -0.02854394     16267.96
      8389.4    0.8398526      2.67766  -0.02718774     16268.64
      8389.6    0.8415538     2.672583  -0.02591586     16269.27
      8389.8    0.8433992     2.667597  -0.02510531      16269.8
        8390    0.8452454      2.66246  -0.02524718     16270.29
      8390.2    0.8469968     2.657576  -0.02527802     16270.68
      8390.4    0.8487414     2.652385  -0.02440116      16270.9
      8390.6    0.8505882     2.647375  -0.02360593     16271.72
      8390.8    0.8523368     2.642939  -0.02334599     16271.97
        8391     0.854062     2.638691  -0.02253193     16272.65
      8391.2    0.8559505     2.633708  -0.02243083     16273.09
      8391.4    0.8577827     2.629349  -0.02181767     16273.29
      8391.6    0.8597251     2.624994  -0.02093477     16274.38
      8391.8    0.8616149     2.621237  -0.01980162     16274.36
        8392     0.863649      2.61696  -0.01956802     16274.76
      8392.2    0.8658099     2.613508  -0.01964665     16275.79
      8392.4    0.8680137      2.60934  -0.01822323     16276.06
      8392.6    0.8703811     2.605519  -0.01771316     16276.42
      8392.8    0.8727801     2.602382   -0.0164406     16277.46
        8393    0.8750119     2.599337  -0.01574511     16277.81
      8393.2    0.8774528     2.596187  -0.01497563     16278.99
      8393.4    0.8799661     2.592923  -0.01454233     16280.18
      8393.6    0.8826607     2.590401  -0.01432903     16281.55
      8393.8    0.8853944     2.587704   -0.0136454     16282.27
        8394    0.8882442     2.584724  -0.01292147     16282.71
      8394.2    0.8911584     2.582007  -0.01215644     16283.26
      8394.4    0.8940714     2.580064   -0.0107217     16284.37
      8394.6    0.8970817     2.577978 -0.009673142      16284.8
      8394.8    0.9001524     2.576147 -0.008656681     16285.11
        8395    0.9033022     2.574268 -0.007613069      16285.4
      8395.2    0.9064937     2.573139 -0.006331659        16286
      8395.4    0.9098209     2.571888 -0.005077817     16286.69
      8395.6    0.9131492     2.571081 -0.004404731     16287.27
      8395.8    0.9162972     2.570206 -0.003557013     16287.27
        8396    0.9195366     2.569615 -0.003193982      16288.3
      8396.2     0.922815     2.569042  -0.00249666     16289.49
      8396.4    0.9262859     2.568526 -0.001542311     16290.64
      8396.6    0.9297867     2.568209 -0.001618483     16291.57
      8396.8    0.9332593     2.568381 -0.0007555127     16292.73
        8397    0.9366678     2.567748 -0.0003736595      16293.5
      8397.2    0.9400957     2.567922 -0.0006057638     16294.26
      8397.4    0.9436741      2.56791 -5.022969e-05     16295.17
      8397.6    0.9472903     2.567897 -4.250475e-05     16296.07
      8397.8    0.9508682     2.567707 -0.001297975      16295.9
        8398    0.9543648     2.567888 -0.0003906466     16296.33
      8398.2    0.9577807     2.566872 7.910724e-05     16296.91
      8398.4    0.9610948     2.567584 -1.956627e-05     16297.39
      8398.6    0.9644333     2.567771 0.0008786417      16297.9
      8398.8    0.9677527     2.567872 0.0001121552     16298.74
        8399     0.971049     2.567575 0.0001275561     16299.17
      8399.2    0.9741689     2.567674 -0.0007415655     16299.53
      8399.4    0.9770841     2.567873 -0.0009061846     16300.09
      8399.6    0.9799481     2.567279 -0.002347794      16300.6
      8399.8    0.9829079     2.566945   -0.0031406     16301.38
        8400    0.9856564     2.566357 -0.003173275     16302.02
        8401    0.9992623     2.563254 -0.003222168     16305.26
        8402     1.012466     2.559598 -0.002776946     16308.62
        8403     1.025831     2.556396 -0.001733282     16311.87
        8404     1.039487      2.55525 0.0001489504     16315.47
        8405     1.054179     2.556321  0.002438214      16319.6
        8406      1.06865     2.560193  0.004566206     16323.67
        8407     1.081397     2.566149   0.00601786     16328.09
        8408     1.091138     2.573514  0.006791215     16332.83
        8409      1.09753     2.580392  0.006747684     16337.79
        8410     1.100812     2.587358  0.006415693     16342.92
        8411     1.101131      2.59314  0.006090931     16345.95
        8412     1.099015     2.599177  0.006372756     16349.19
        8413     1.094765     2.604756  0.007311584     16354.01
        8414     1.089095     2.612849  0.008680627     16359.21
        8415     1.082503     2.622386   0.01017592     16363.44
        8416     1.075539       2.6339   0.01089894     16367.75
        8417     1.068706     2.645459   0.01122722     16371.85
        8418     1.061989     2.656445   0.01097808     16377.13
        8419     1.055269     2.667295   0.01067521     16382.09
        8420     1.047962     2.677812   0.01065301     16385.31
        8421     1.040319      2.68816   0.01098709     16388.74
        8422     1.032479     2.699057   0.01159086     16392.65
        8423     1.024477     2.711243   0.01247671     16395.45
        8424     1.017377     2.724175   0.01340662     16397.73
        8425     1.011467     2.738067   0.01393932     16399.24
        8426     1.006566     2.752684   0.01409986     16402.13
        8427     1.002324     2.767001   0.01367631     16405.37
        8428    0.9984158     2.780575   0.01232439     16408.89
        8429    0.9949539     2.792772   0.01029205     16411.43
        8430    0.9919827     2.801981  0.007387544     16414.99
        8431    0.9895957     2.808169  0.004003209     16420.57
        8432    0.9879917     2.810125 0.0003029008     16425.47
        8433    0.9870951     2.808785 -0.003680597     16429.17
        8434    0.9869543     2.803193 -0.007347529     16432.38
        8435    0.9874245     2.793446  -0.01063674     16436.96
        8436    0.9882323     2.780735  -0.01321961     16440.31
        8437     0.988936     2.766238  -0.01501096      16443.2
        8438    0.9894634     2.750314  -0.01604634     16445.84
        8439    0.9902491     2.733403  -0.01675053      16450.1
        8440    0.9911447      2.71655  -0.01720073     16455.92
        8441    0.9918192     2.699236  -0.01726475     16460.41
        8442    0.9917952     2.681511  -0.01689026     16464.02
        8443    0.9915381     2.664344  -0.01596753     16468.15
        8444    0.9910026     2.648989  -0.01469428     16472.32
        8445    0.9903189     2.635366  -0.01309428     16475.62
        8446    0.9900082     2.622734  -0.01179241     16478.22
        8447    0.9898412     2.611966  -0.01112967     16481.38
        8448    0.9895936     2.601819  -0.01113101     16484.56
        8449    0.9893359     2.590847  -0.01196479     16489.21
        8450    0.9890326      2.57821  -0.01321415      16494.4
        8451    0.9887598     2.564107  -0.01463082     16498.35
        8452    0.9882849     2.548962  -0.01537251     16501.91
        8453    0.9880677     2.532324  -0.01559562     16506.04
        8454    0.9882974      2.51672  -0.01523153     16509.62
        8455    0.9886167     2.501725  -0.01383197     16512.72
        8456    0.9891314     2.488036  -0.01201722      16517.1
        8457    0.9899761     2.476996  -0.00947702     16520.86
        8458    0.9910748     2.468651 -0.006571708     16524.82
        8459    0.9918808     2.463817 -0.003680398     16529.32
        8460    0.9925479     2.461749 -0.0006767062     16533.11
        8461    0.9928263     2.462275  0.001989861     16536.52
        8462    0.9927982     2.465944  0.004473153      16540.9
        8463    0.9925028     2.471776  0.006681156     16544.23
        8464    0.9918815     2.479642  0.008361237     16547.42
        8465     0.990594     2.488999  0.009618968     16550.43
        8466    0.9890961     2.499389   0.01048582     16554.82
        8467    0.9869943     2.510252   0.01112948     16558.41
        8468    0.9840578     2.521585   0.01144308      16561.7
        8469    0.9802806     2.533517   0.01137535     16564.72
        8470    0.9756369     2.545162    0.0106946     16567.35
        8471    0.9710682     2.555753  0.009410946        16571
        8472    0.9661074     2.564364  0.007730008     16573.66
        8473    0.9615955     2.571161  0.005985603     16577.57
        8474    0.9573225     2.576082  0.003961136     16581.36
        8475    0.9532456     2.579696  0.001980078     16585.15
        8476    0.9497977     2.580208 0.0001140776     16588.18
        8477    0.9470597     2.579081 -0.001565065     16590.27
        8478    0.9456147     2.576538 -0.002415353     16593.14
        8479    0.9452692     2.573436  -0.00258138     16596.84
        8480    0.9461128     2.570547 -0.001963638      16601.6
        8481    0.9479353     2.568756 -0.0005781908     16607.54
        8482    0.9510257     2.568684  0.001698623     16612.95
        8483    0.9549766     2.571123  0.004644345     16618.03
        8484    0.9593317     2.577341  0.008053698     16621.58
        8485     0.963996     2.587333   0.01175005     16623.69
        8486    0.9689238     2.600898    0.0149788     16625.16
        8487    0.9739602     2.618123   0.01758802     16628.33
        8488    0.9793658     2.637256   0.01910138     16632.46
        8489    0.9846724     2.657685    0.0194464     16635.48
        8490    0.9897809     2.677304   0.01891574     16639.16
        8491    0.9945798     2.695909    0.0175509     16644.23
        8492    0.9990583     2.712919   0.01554385     16649.55
        8493     1.003018     2.727889    0.0132318     16654.26
        8494     1.006741     2.739479    0.0105954     16657.15
        8495     1.010109     2.748836   0.00798842     16659.81
        8496     1.012897     2.755301  0.005730012     16662.53
        8497     1.015306     2.759842  0.003689981     16666.72
        8498     1.017516     2.762399  0.002036333     16669.36
        8499     1.019234     2.763596 0.0006827845     16671.45
        8500     1.020751     2.763446 -0.0008022984     16674.63
        8501     1.022443     2.762574 -0.002384158      16679.6
        8502     1.024323      2.75919 -0.004166333        16685
        8503     1.025908     2.754059  -0.00631958     16689.12
        8504     1.027442     2.746781 -0.008478336     16693.26
        8505     1.028984     2.737295  -0.01056328     16696.42
        8506     1.030643     2.725277  -0.01290051     16699.82
        8507     1.032386     2.711806  -0.01497276     16702.54
        8508     1.034418     2.695179  -0.01675843     16706.49
        8509     1.036241     2.677404  -0.01870436     16709.65
        8510      1.03762     2.658243  -0.02007023     16713.18
        8511     1.039291     2.636989  -0.02126485     16718.11
        8512     1.041204     2.614898  -0.02247409     16722.93
        8513     1.043935     2.592345    -0.023215     16727.23
        8514     1.048573     2.568347  -0.02380912     16729.15
        8515     1.052993     2.544129  -0.02431675     16716.86
        8516     1.054916     2.519662  -0.02423221     16694.43
        8517     1.056153     2.495078  -0.02346833     16686.59
        8518     1.056776     2.471418  -0.02220544     16686.05
        8519     1.056522     2.450255  -0.02003234     16686.22
        8520     1.056526      2.43084  -0.01755991     16686.65
        8521     1.054876     2.414948  -0.01458678     16688.99
        8522     1.052089     2.401178  -0.01136604     16693.46
        8523     1.049618     2.391908 -0.007877018     16698.73
        8524     1.048012     2.385376 -0.004182523     16704.19
        8525     1.046751      2.38344  -0.00083221     16707.54
        8526     1.043684     2.384448  0.002581952     16709.77
        8527     1.039228     2.388579  0.005501728     16713.74
        8528     1.035495     2.395703   0.00801501     16721.52
        8529     1.031761     2.405447   0.01001665     16728.24
        8530     1.027564     2.416508   0.01139105     16730.67
        8531     1.023402     2.428646   0.01222623     16731.94
        8532     1.020241     2.441268   0.01276346     16735.25
        8533     1.016181     2.454352     0.012871     16738.32
        8534     1.010427     2.467562   0.01262798     16740.71
        8535     1.005082      2.48013   0.01203092     16747.91
        8536     1.000647      2.49178   0.01110991     16752.25
        8537    0.9965228     2.502476    0.0101535     16754.72
        8538    0.9933121     2.512002  0.009075276     16753.87
        8539    0.9897418     2.520744  0.007885573      16755.3
        8540    0.9851624     2.528081  0.006544792      16763.3
        8541    0.9821293     2.534018  0.005088553     16768.08
        8542    0.9804655     2.538181  0.003706283     16769.96
        8543    0.9783653     2.541098  0.002200912      16774.8
        8544    0.9775154     2.542906 0.0009897303     16781.51
        8545    0.9784774     2.542822 -0.000148792     16785.59
        8546    0.9789277      2.54214 -0.001161693     16787.66
        8547     0.979337     2.540503 -0.001701969     16791.15
        8548    0.9795672     2.538259 -0.002234653      16795.6
        8549    0.9798005     2.536014 -0.002356527     16800.02
        8550    0.9808822     2.533201 -0.002605964     16804.14
        8551    0.9818808     2.531077 -0.002905534     16810.32
        8552    0.9827292     2.527835 -0.003000206      16811.9
        8553    0.9843535     2.524392 -0.003282064     16814.12
        8554    0.9864806       2.5212 -0.003442987     16818.56
        8555    0.9879238     2.517949 -0.003602144     16822.44
        8556    0.9897556     2.514063 -0.003789446     16826.14
        8557    0.9917705     2.509983 -0.004079588     16829.75
        8558    0.9932261     2.506042 -0.004205027     16834.66
        8559    0.9942751      2.50163 -0.004083276     16837.95
        8560    0.9950539     2.497243 -0.003763914     16838.15
        8561    0.9960388      2.49365 -0.003012786     16840.61
        8562    0.9970002     2.490987  -0.00178614     16846.29
        8563    0.9986281     2.489579 -0.0004194287     16851.92
        8564     0.999662     2.490099  0.001280242     16855.21
        8565    0.9997646     2.491972  0.003036197     16859.35
        8566    0.9997227     2.496108  0.004805671     16865.71
        8567    0.9994477     2.501724  0.006632824     16868.62
        8568     1.000098     2.509321  0.007917173     16869.67
        8569      1.00014     2.518504  0.009006139     16873.11
        8570     1.000012     2.527776  0.009514002     16878.41
        8571     1.001214     2.537748  0.009433318     16884.62
        8572     1.002701     2.547377  0.009107301     16892.45
        8573     1.003959     2.556237  0.008382218     16898.93
        8574     1.005424     2.564206  0.007655721     16901.06
        8575     1.006836     2.571277  0.006843938     16902.96
        8576     1.007231        2.578  0.006067923     16908.75
        8577      1.00729     2.583613  0.005287935     16912.54
        8578     1.008117     2.588477  0.004280533     16917.94
        8579     1.009287     2.592429  0.003288415     16923.64
        8580     1.010421     2.595122  0.002343723     16928.17
        8581     1.011465     2.596766  0.001253946     16931.93
        8582     1.012254     2.597852  0.000428033      16936.7
        8583     1.012664     2.597445 -0.0007154558     16940.94
        8584     1.013387     2.596834 -0.001921547     16943.17
        8585     1.014493     2.593905 -0.002971473     16944.27
        8586     1.014847     2.590166 -0.004274901     16945.49
        8587     1.015044     2.585559 -0.005401482     16946.81
        8588     1.016228     2.579735 -0.006592258     16948.11
        8589     1.017252     2.572299 -0.007890342      16951.9
        8590     1.018138     2.563797 -0.008942728     16959.75
        8591     1.018467     2.553998 -0.009802989     16964.11
        8592     1.017422     2.543964  -0.01059616     16965.53
        8593     1.017139     2.533087    -0.011156     16965.36
        8594     1.017623     2.521412  -0.01146979     16969.02
        8595     1.017107     2.509374  -0.01148348     16973.27
        8596     1.016253     2.498085   -0.0114885     16976.73
        8597      1.01569     2.487153  -0.01118534      16978.6
        8598     1.014977     2.475458  -0.01093021     16980.18
        8599     1.013706     2.464632  -0.01069166     16983.59
        8600     1.012105     2.454364 -0.009920367      16990.2
        8601     1.010202     2.444386 -0.009165986     16994.43
        8602     1.008088     2.435777 -0.008407847     16995.05
        8603     1.006046     2.427968 -0.007307087     16998.18
        8604     1.004235     2.420733 -0.006267536     17005.81
        8605     1.002558     2.415158 -0.005334477      17013.3
        8606     1.000822     2.410707 -0.004280678      17016.6
        8607    0.9988091      2.40663 -0.003332511     17020.29
        8608    0.9975038      2.40361  -0.00265888     17024.88
        8609    0.9956111     2.401828 -0.001812839     17028.12
        8610    0.9937136     2.400071 -0.001194137     17031.18
        8611    0.9929771     2.399379 -0.0007081007      17035.1
        8612    0.9934592     2.398833 -0.0003261571     17039.82
        8613    0.9935146     2.398995 -0.0002202955     17042.19
        8614    0.9933578     2.398767 1.494432e-06     17045.13
        8615    0.9930157     2.398498 -0.0001399042     17048.96
        8616    0.9928083     2.398839 -0.0001071583     17050.44
        8617    0.9932755     2.398436 -0.0001167717     17052.59
        8618    0.9931339     2.398338 -0.0002079159     17054.72
        8619    0.9930996     2.398031 -0.000149793     17055.52
        8620    0.9933644     2.398008 -0.0002481109      17054.9
        8621    0.9938021     2.397836 -0.0003582365     17049.83
        8622    0.9951424     2.397346 -0.0003654664     17029.47
        8623    0.9966448     2.396598 -0.0003794016     16946.18
        8624    0.9962833     2.396546 -0.0002145698     16818.21
        8625    0.9952362     2.396319 -0.0002153445     16840.06
        8626    0.9944459     2.396487 -0.0002246622     16898.14
        8627    0.9955907     2.395736 -0.0002057591     17047.36
        8628    0.9968695     2.395647 -0.0001228792      17087.9
        8629    0.9978004     2.395496 0.0002682887     17098.55
        8630    0.9986931     2.395996 0.0005908654     17103.92
        8631    0.9994735     2.396809 0.0009675403     17110.38
        8632     1.000375     2.398011  0.001262618     17116.63
        8633     1.000793     2.399366  0.001491107     17119.12
        8634     1.000694     2.401046  0.001702455     17120.23
        8635     1.000473     2.402774  0.001912552     17124.32
        8636     1.000084      2.40482  0.002062178     17129.77
        8637      0.99991     2.407016  0.002178188      17135.2
        8638     1.000106     2.409295  0.002139659     17138.03
        8639     1.000225     2.411487  0.002255222     17139.59
        8640     1.000248     2.413379   0.00202939     17142.78
        8641     1.000552     2.416037  0.001913576     17144.75
        8642     1.001035     2.417413  0.001964958     17146.27
        8643     1.001776     2.419141   0.00162118     17148.98
        8644     1.002349     2.421239  0.001611581     17152.84
        8645     1.002814     2.422522  0.001453289     17155.24
        8646       1.0027     2.423859  0.001157855     17159.89
        8647      1.00276     2.424954  0.001091331     17165.02
        8648     1.003165      2.42587 0.0009199686     17169.26
        8649     1.003657     2.426887 0.0008435151     17173.88
        8650      1.00377     2.427539  0.000774106     17178.71
        8651     1.003875     2.428328 0.0007198473     17183.67
        8652     1.004515     2.428967  0.000614584     17188.97
        8653     1.005512     2.429767 0.0006558327     17192.43
        8654     1.006338     2.429997  0.000799822     17195.05
        8655     1.006719     2.430952 0.0007563262     17199.32
        8656      1.00724     2.432166   0.00108626     17203.96
        8657     1.008283     2.432792   0.00117829      17207.7
        8658     1.009114     2.434342  0.001157189     17210.24
        8659     1.009936     2.435665  0.001313631     17213.02
        8660     1.011035     2.436795  0.001299717     17215.81
        8661     1.011944     2.438046  0.001362303     17219.43
        8662     1.012105     2.439541  0.001524419     17221.46
        8663     1.012849     2.441114  0.001628428     17225.52
        8664     1.014015     2.442892  0.001647224     17229.61
        8665     1.014711      2.44456  0.001519847     17230.56
        8666     1.015046      2.44613  0.001255393     17232.02
        8667     1.014906     2.447193 0.0008998554     17236.26
        8668     1.014853     2.447914 0.0005866884     17240.58
        8669     1.015231      2.44816 0.0001842803     17243.16
        8670     1.015968     2.448477 -0.0002478745     17247.76
        8671     1.015329      2.44793 -0.0007147026     17252.27
        8672     1.013417     2.446922 -0.001413189     17255.32
        8673     1.012033     2.445301 -0.001849174     17257.03
        8674     1.011796     2.442824  -0.00232487      17262.3
        8675     1.011477     2.440534 -0.002703953     17264.83
        8676     1.010652     2.437623 -0.003099241     17266.45
        8677     1.009314     2.434485 -0.003447061     17270.58
        8678     1.007716     2.430427 -0.003758904     17274.94
        8679     1.006158     2.426745 -0.004077603     17280.49
        8680     1.004564     2.422587 -0.004184989     17283.17
        8681     1.002715     2.418174 -0.004393649     17286.84
        8682     1.000918     2.413687 -0.004597735     17291.36
        8683    0.9998876     2.409171 -0.004680773     17294.71
        8684    0.9987224     2.404196 -0.004662484     17296.41
        8685    0.9973322     2.399451 -0.004623756     17297.85
        8686    0.9953913     2.395037 -0.004414701     17299.95
        8687    0.9935901     2.390676 -0.004241195     17302.28
        8688    0.9922913     2.386538 -0.003997507     17304.99
        8689    0.9913263     2.382487 -0.003698727     17308.19
        8690    0.9906704     2.379047  -0.00326992     17312.04
        8691    0.9901786     2.375881 -0.002811335     17315.28
        8692     0.989889     2.373458 -0.002406592     17318.33
        8693     0.989267     2.371241 -0.001941594     17321.51
        8694     0.988922     2.369421 -0.001585018     17326.23
        8695    0.9887228     2.368115 -0.001180736     17331.32
        8696    0.9881795     2.367118 -0.0008296316     17334.93
        8697    0.9878943     2.366518 -0.0005449642      17333.8
        8698    0.9879815     2.366102 -0.0003183571     17322.05
        8699    0.9879456     2.365935 -0.0003834528     17310.25
        8700    0.9877383     2.365844 -0.0004461713     17315.16
        8701    0.9878718     2.364985 -0.0006680195     17326.06
        8702    0.9884175     2.364317 -0.0009080235     17339.81
        8703    0.9886709     2.363263   -0.0011468     17348.82
        8704    0.9887941     2.362212 -0.001542139     17353.31
        8705    0.9889391     2.360397 -0.001836164     17353.57
        8706    0.9891394     2.358149 -0.002282463      17345.8
        8707    0.9892073     2.355918 -0.002657034     17337.08
        8708    0.9895176     2.353082 -0.002938813     17341.38
        8709    0.9896952     2.349769 -0.003307353     17351.54
        8710    0.9898256     2.346394 -0.003598431     17363.86
        8711     0.989438     2.342689 -0.003747116     17372.42
        8712    0.9889501     2.338689 -0.003912915     17378.33
        8713    0.9889195     2.334781 -0.003801194     17382.93
        8714     0.989231     2.330742 -0.003445948     17386.36
        8715    0.9888327     2.327484 -0.003165263     17390.91
        8716    0.9883254     2.324905 -0.002704726     17395.99
        8717    0.9879329      2.32212 -0.002228154     17399.68
        8718     0.987827     2.319923   -0.0018252     17402.82
        8719    0.9877682     2.318571 -0.001441493     17407.66
        8720      0.98762     2.317604 -0.001049721     17412.25
        8721    0.9878019     2.316354 -0.0007919223     17415.21
        8722    0.9881127     2.315724 -0.0006834284     17417.14
        8723    0.9880046     2.315403 -0.0005946366     17420.06
        8724    0.9878399      2.31487 -0.0004463697     17423.05
        8725    0.9881707     2.313975 -0.0004792807     17427.04
        8726    0.9882638     2.313939 -0.0005106185     17430.43
        8727    0.9883245     2.313486 -0.0004341765     17435.13
        8728    0.9886388     2.312828 -0.0004298047     17438.67
        8729    0.9890581     2.312238 -0.0004421194     17440.91
        8730    0.9894094     2.312219 -0.0003235748     17443.06
        8731    0.9902458     2.311718 -0.0002711307     17445.12
        8732    0.9915241     2.311534 -0.0002153737     17449.35
        8733    0.9929059     2.311154 -5.48311e-05     17455.28
        8734    0.9938472     2.311358 4.382007e-08     17460.59
        8735    0.9946556     2.311499  9.06531e-05     17463.89
        8736    0.9953233     2.311534 0.0001561366     17465.36
        8737    0.9957529     2.311517 0.0001730744     17468.54
        8738    0.9963553     2.311983 0.0002520513      17473.6
        8739     0.997016     2.312191 0.0003153999     17478.72
        8740      0.99751     2.312542 0.0002167287      17481.7
        8741    0.9982809     2.312778 0.0002181606     17482.92
        8742    0.9990774     2.312849 0.0002823872     17484.48
        8743    0.9999731     2.313063  0.000398612     17487.15
        8744     1.000362     2.313672 0.0004096954        17489
        8745     1.000818     2.314373 0.0004809382     17493.69
        8746     1.001469     2.314488  0.000438011     17497.03
        8747      1.00175     2.314987 0.0004851607     17497.63
        8748     1.002342     2.315424 0.0006446879     17498.75
        8749     1.003154     2.316313 0.0005149458     17500.65
        8750     1.004048     2.317067 0.0004563966     17504.57
        8751     1.004918     2.317047 0.0003055482        17508
        8752     1.005244     2.317249 0.0002994443     17509.95
        8753     1.005469     2.317535 0.0004086151     17513.78
        8754     1.005917     2.318265 0.0004926649     17518.82
        8755     1.006821     2.318681 0.0005020339     17522.19
        8756     1.007675      2.31922  0.000331379     17525.05
        8757     1.008411     2.319544 0.0002874943     17527.75
        8758      1.00888      2.31959 0.0002583669      17529.8
        8759     1.009039     2.319831 0.0002650331     17532.11
        8760     1.008875     2.320253 0.0003258565     17536.77
        8761     1.008641     2.320604 0.0003173396     17542.24
        8762     1.007887     2.320894 0.0002321617     17546.91
        8763     1.007447     2.321101 8.804208e-05     17550.61
        8764      1.00721     2.321182 7.031698e-05     17553.16
        8765     1.007174     2.320956 0.0001259508     17556.86
        8766      1.00687     2.321175 0.0001515673     17559.89
        8767     1.006213     2.321605 0.0002932478     17561.51
        8768     1.005635     2.321788  0.000166691     17564.51
        8769     1.005546     2.322129 2.756619e-05     17569.14
        8770     1.005003     2.321842 -1.469361e-05     17571.32
        8771      1.00387     2.321715 -8.32622e-05     17573.78
        8772       1.0028     2.321729 -0.000238774     17577.11
        8773     1.001812     2.321796 -0.0002913024     17580.82
        8774     1.000745     2.320887 -0.0004417434     17583.87
        8775    0.9999616      2.32055 -0.0006492924     17587.79
        8776     0.999098     2.319963 -0.0006989385     17589.66
        8777    0.9985394     2.319199 -0.0008414346     17591.52
        8778    0.9980457     2.318091 -0.001042085      17592.6
        8779    0.9977227     2.317184 -0.001253953     17593.92
        8780    0.9973355     2.315794  -0.00137913     17597.15
        8781    0.9973394     2.314183  -0.00153643     17601.42
        8782    0.9977927     2.312574 -0.001641384      17605.2
        8783    0.9979228     2.311038  -0.00178993     17607.64
        8784    0.9973662     2.309229 -0.001986895     17609.84
        8785    0.9963754     2.307023 -0.002216548     17611.74
        8786     0.995638     2.304627 -0.002382149     17613.95
        8787     0.995082     2.302172 -0.002516371     17616.05
        8788    0.9947547       2.2997 -0.002517976     17617.31
        8789    0.9950017     2.296958 -0.002568354     17618.89
        8790    0.9955207     2.294555 -0.002628139      17622.8
        8791     0.995801     2.291899 -0.002591252     17626.45
        8792     0.996109     2.289187 -0.002561475     17630.89
        8793    0.9964406     2.286593 -0.002368522     17634.95
        8794    0.9965222     2.284309 -0.002283351     17637.43
        8795    0.9967515     2.282425 -0.002157054     17639.73
        8796    0.9969416     2.280054 -0.002021418     17642.05
        8797    0.9970868     2.277964 -0.002089746     17643.89
        8798    0.9972537     2.276223 -0.001876959     17645.44
        8799    0.9972318     2.274066 -0.001658733     17647.09
        8800    0.9967029     2.272546  -0.00147445     17649.99
        8801    0.9963008     2.271329  -0.00121975     17652.16
        8802    0.9961668     2.270325 -0.001132422     17655.09
        8803    0.9960515     2.269187 -0.0009885711     17657.68
        8804    0.9961727     2.268017 -0.0008801001      17661.2
        8805    0.9958694     2.267375 -0.0007980657     17664.13
        8806    0.9953705     2.266805 -0.0007083638        17667
        8807    0.9948312     2.265994 -0.0006927274     17670.04
        8808     0.994644     2.265183 -0.000649478     17673.38
        8809    0.9947508     2.264604 -0.0006042318     17677.43
        8810    0.9948837     2.264207 -0.0005172247     17679.71
        8811    0.9948088     2.263577 -0.0004896155     17682.55
        8812    0.9944278     2.263114 -0.0005500465     17684.57
        8813    0.9942539     2.262646 -0.0006037162     17686.82
        8814    0.9939216     2.262007 -0.0006205614     17688.79
        8815    0.9938995     2.261162 -0.0006939273     17693.04
        8816    0.9941267     2.260632 -0.0008098876      17696.5
        8817    0.9944871      2.25987 -0.0007767425     17699.65
        8818    0.9950072     2.258767 -0.0009112139     17702.27
        8819    0.9953711     2.258056 -0.0009675319     17704.57
        8820    0.9955732     2.256987 -0.0009542431     17706.89
        8821    0.9954409        2.256 -0.001116905     17707.32
        8822    0.9953682      2.25495 -0.001137462     17707.79
        8823     0.995603     2.253588 -0.001266743     17706.93
        8824    0.9959795     2.252437  -0.00141114     17706.65
        8825    0.9957114     2.250933 -0.001512154     17705.28
        8826    0.9946863     2.249306 -0.001740604     17702.58
        8827    0.9937694     2.247539 -0.001779244     17698.52
        8828    0.9933943     2.245475 -0.001813622     17690.18
        8829    0.9936179     2.243816 -0.002009915     17671.98
        8830    0.9944663     2.242051 -0.001773029     17625.63
        8831    0.9965719       2.2395 -0.001467515     17484.97
        8832    0.9974624     2.238383 -0.001721552     17234.43
        8833    0.9936121     2.237946 -0.001257422     17211.78
        8834    0.9956197     2.235165 -0.001187432     17335.62
        8835    0.9955393      2.23447 -0.001617128     17251.05
        8836    0.9927242     2.233633 -0.001297353     17461.91
        8837    0.9944783     2.231477 -0.001387736     17700.02
        8838    0.9952802     2.229976   -0.0014599     17758.49
        8839    0.9954403     2.228919 -0.001180546     17772.04
        8840    0.9957678     2.227793  -0.00114787     17778.04
        8841    0.9959885     2.226755 -0.001174482     17781.14
        8842    0.9963929     2.225384 -0.001121994     17784.53
        8843    0.9966777     2.224221  -0.00113499     17787.73
        8844    0.9967642     2.223305 -0.001055039      17791.1
        8845     0.996897     2.222215 -0.0009864666     17792.69
        8846    0.9972969     2.221164 -0.001046719     17794.11
        8847    0.9977785     2.220275 -0.001088577     17797.23
        8848    0.9982874     2.219119 -0.001066706     17801.57
        8849    0.9987393     2.217861 -0.001119836      17805.1
        8850    0.9991534     2.216897 -0.001088339     17808.76
        8851    0.9993981     2.215796 -0.0009314756     17811.25
        8852    0.9997069     2.214765 -0.0009423779     17813.36
        8853     1.000193     2.214135 -0.0009254832     17815.23
        8854     1.000463     2.213128 -0.0008804578     17816.51
        8855     1.000755     2.212094 -0.0008785808     17820.15
        8856     1.000897     2.211243 -0.0008629576     17822.44
        8857     1.000569     2.210621 -0.0007232617     17823.39
        8858     1.000674     2.209676 -0.000637308     17826.27
        8859     1.000669     2.209201 -0.0006200647     17829.75
        8860     1.000768     2.208694 -0.0004766078     17833.76
        8861       1.0007      2.20814 -0.0004422845     17838.15
        8862     1.000846      2.20777 -0.0003314914     17844.82
        8863     1.001114     2.207432 -0.0002001079     17848.51
        8864     1.001153     2.207368 -0.0001391846     17850.49
        8865     1.000452      2.20734 -0.0001123564     17852.22
        8866    0.9994731     2.207213 -0.0001580901     17853.76
        8867    0.9988064     2.206982 -0.0001286025     17855.45
        8868    0.9983666     2.206736 -0.0001145159     17857.38
        8869    0.9981512     2.206826 -3.356749e-06     17859.62
        8870    0.9982779     2.206755 3.824601e-05     17862.78
        8871    0.9983552     2.206969 9.932951e-06     17866.56
        8872    0.9982358     2.206889  6.14661e-05     17870.31
        8873    0.9980641     2.206865  3.30912e-05     17873.96
        8874    0.9983182     2.207001  0.000111165     17877.34
        8875    0.9985356     2.207101 0.0001593778     17880.31
        8876    0.9982082     2.207333 0.0002288547     17883.34
        8877    0.9978306     2.207503 0.0002623973     17884.74
        8878    0.9976973     2.207916 0.0002514344     17885.78
        8879     0.997747     2.208151 0.0002464202     17887.81
        8880    0.9978254     2.208339 0.0001978633      17892.3
        8881    0.9978459     2.208489 0.0002413748     17895.63
        8882    0.9978677     2.208708 0.0002845846     17898.56
        8883    0.9978553     2.209116 0.0003198039     17899.98
        8884    0.9977554     2.209478 0.0003090631     17901.27
        8885    0.9976484     2.209768 0.0002261825     17903.96
        8886     0.997314     2.209944 0.0002196063     17907.56
        8887    0.9970756     2.210021 0.0001917828     17911.24
        8888    0.9969877     2.210356 0.0001087458     17914.87
        8889    0.9970683     2.210535 0.0001180633     17918.77
        8890    0.9971406     2.210379 -2.219875e-05     17921.92
        8891    0.9971422     2.210493 -0.0001854666     17924.57
        8892    0.9971934     2.210267 -0.0001983479     17926.92
        8893    0.9972431     2.209793 -0.0003281919     17928.61
        8894    0.9970196     2.209585 -0.0004608239     17930.64
        8895     0.996614     2.209181 -0.0004897159     17934.11
        8896    0.9964421     2.208424 -0.0006266289     17937.78
        8897     0.996205     2.207834 -0.0007498334     17940.32
        8898    0.9955106     2.207079 -0.0008780578     17942.48
        8899    0.9950023     2.206181 -0.0009744983      17945.1
        8900    0.9946783     2.204912 -0.001198241     17947.66
        8901    0.9947615     2.203936 -0.001333421     17950.84
        8902     0.994929     2.202286 -0.001408575     17953.84
        8903    0.9951017     2.200848 -0.001571203     17956.61
        8904    0.9951041     2.199277 -0.001587025     17959.14
        8905    0.9952214     2.197651 -0.001663884     17961.33
        8906    0.9952023     2.195938 -0.001763488     17962.77
        8907    0.9949345     2.194192 -0.001765706     17965.54
        8908    0.9948143     2.192223 -0.001797803     17968.54
        8909    0.9946356     2.190589 -0.001764846     17971.47
        8910    0.9945152     2.188747 -0.001691837     17974.49
        8911    0.9943851     2.187133 -0.001704446      17978.7
        8912    0.9942762     2.185456 -0.001694298     17982.76
        8913    0.9943229     2.183771  -0.00165456     17985.23
        8914    0.9943834     2.181969  -0.00163377     17986.39
        8915    0.9944178     2.180514 -0.001560509     17988.19
        8916    0.9945081     2.178921 -0.001449569     17990.86
        8917    0.9946435     2.177529 -0.001385876     17992.32
        8918    0.9948114     2.176171  -0.00137935     17994.45
        8919    0.9949478     2.174971 -0.001287885     17997.72
        8920      0.99509     2.173404  -0.00118668     18001.68
        8921    0.9951438     2.172377 -0.001202734     18004.65
        8922    0.9951487     2.171424 -0.001057131     18006.72
        8923    0.9954416      2.17016 -0.001120622     18009.81
        8924    0.9956513     2.169175 -0.001158516      18012.8
        8925     0.995906     2.167895 -0.001010501     18015.82
        8926     0.996102      2.16679  -0.00105153     18019.15
        8927    0.9962646     2.166118 -0.0009315506     18021.67
        8928    0.9967591     2.164969 -0.0008647806     18022.22
        8929    0.9972178     2.164169 -0.001000289     18023.57
        8930    0.9976299     2.163331 -0.0008979766     18027.03
        8931    0.9980039     2.162117 -0.0008692346     18030.33
        8932    0.9984671     2.161377 -0.0008946749      18033.2
        8933    0.9989604     2.160692 -0.0007700959     18036.23
        8934    0.9990921     2.159752 -0.0008776845      18038.7
        8935    0.9990942     2.159036 -0.0009150486     18040.75
        8936     0.999541     2.157866 -0.0007856605     18037.61
        8937     1.000313     2.157031 -0.0007472488        18014
        8938     1.000184      2.15661 -0.0006403158     17963.53
        8939     0.999377     2.156047 -0.0006416166     17942.72
        8940     0.998905     2.155305 -0.0007765044     17966.04
        8941    0.9985844     2.154465 -0.0008605987      18016.4
        8942    0.9988953     2.153504 -0.0007982336     18041.76
        8943     0.998988     2.152605 -0.0008394454     18049.22
        8944     0.999057     2.152112 -0.0008519482     18055.76
        8945    0.9992657     2.151107 -0.0007989419     18061.71
        8946    0.9996073     2.150096 -0.0008865628     18066.34
        8947    0.9999176     2.149409 -0.000834765     18070.15
        8948     1.000061     2.148566 -0.0008367991     18072.57
        8949      1.00005     2.147768 -0.0008291805     18074.91
        8950     1.000021     2.146749 -0.0008500511     18077.97
        8951    0.9999145     2.146093 -0.0008760765     18079.55
        8952      1.00007     2.145166 -0.0008129729     18082.11
        8953     1.000609     2.144264 -0.0009617176     18084.26
        8954     1.001061     2.143497 -0.0008719047     18087.76
        8955     1.001281     2.142246 -0.0007896192     18091.94
        8956     1.001072     2.141678 -0.0008712062     18093.35
        8957     1.000918     2.141105 -0.0008425985     18094.38
        8958     1.000953     2.140012 -0.0009198344     18095.89
        8959     1.001107     2.138875 -0.0009816042     18097.68
        8960     1.001393     2.137999 -0.0009309294     18099.68
        8961     1.001623     2.137179 -0.0008888908     18101.79
        8962      1.00174     2.136288 -0.0009033622     18104.76
        8963     1.001885      2.13532 -0.0009325148     18107.69
        8964     1.001735     2.134385 -0.0009321691     18110.92
        8965     1.001446     2.133449 -0.0009945087     18115.76
        8966     1.001349      2.13256 -0.001027929     18119.66
        8967     1.001449     2.131342 -0.001007815     18120.96
        8968     1.001543     2.130273 -0.001068476     18122.54
        8969     1.001708     2.129418  -0.00096187      18123.6
        8970     1.001966     2.128286 -0.000981791     18125.26
        8971     1.002137     2.127494 -0.001030167     18129.22
        8972     1.002288     2.126346 -0.001001379     18133.82
        8973     1.002405     2.125297 -0.001031541     18137.14
        8974      1.00246      2.12428 -0.0008814577     18139.73
        8975     1.002369     2.123368 -0.0008074388        18142
        8976     1.002117      2.12282 -0.0007578833     18142.87
        8977     1.002244     2.122067 -0.0007188029     18145.36
        8978     1.002279     2.121249 -0.0007307331     18146.83
        8979     1.002359     2.120493 -0.0008374943     18147.36
        8980     1.002461     2.119898 -0.0007871621     18149.58
        8981     1.002575     2.118717 -0.0007127356     18151.83
        8982     1.002474       2.1181 -0.0007557951     18152.18
        8983      1.00203     2.117642 -0.0006663832     18152.25
        8984     1.001516     2.116874 -0.0005656858     18154.82
        8985     1.001252     2.116052 -0.0006459163     18156.73
        8986     1.000959     2.115837 -0.000680223     18158.88
        8987     1.000887     2.115058 -0.0005827076     18161.84
        8988     1.000908     2.114153 -0.0006471392     18163.45
        8989      1.00105     2.113721 -0.0005842783      18165.8
        8990     1.001166     2.113249 -0.0005115688     18167.77
        8991     1.001194     2.112721 -0.0005575023     18168.68
        8992     1.001309     2.112107 -0.0005690238     18169.76
        8993     1.001528     2.111491 -0.0005908332     18171.91
        8994     1.001668     2.110973 -0.0005752333     18173.54
        8995     1.001722     2.110358 -0.0004805559     18175.85
        8996     1.001783     2.109806 -0.0005602101     18179.04
        8997     1.001766     2.109569 -0.0004739906     18181.97
        8998     1.001633     2.108732 -0.0005087558     18183.93
        8999     1.001005     2.108462 -0.0006435469     18184.51
        9000     1.000531     2.107771 -0.0004927229     18186.84
        9001     1.000444     2.106994 -0.000576646     18189.71
        9002     1.000289     2.106761 -0.0005587912     18192.55
        9003     1.000118     2.106155 -0.0004912927     18195.31
        9004     1.000305     2.105536 -0.0006113933     18199.18
        9005     1.000392     2.105029 -0.0005322951     18202.13
        9006     1.000432     2.104315 -0.0004777163     18204.44
        9007      1.00051     2.104026 -0.000488373     18206.49
        9008     1.000626     2.103625 -0.0004098254      18209.4
        9009      1.00065     2.103076 -0.0004471116     18211.55
        9010     1.000539     2.102676 -0.0004497593      18213.4
        9011      1.00029     2.102238 -0.0004576351     18213.94
        9012     1.000375     2.101826 -0.0004487423     18215.77
        9013     1.000654     2.101245 -0.0004481866     18218.11
        9014     1.001046     2.100881 -0.0003997009     18220.81
        9015     1.001326     2.100445 -0.0004012648     18223.24
        9016     1.001342     2.100227 -0.0004267196     18225.83
        9017     1.000781      2.09964 -0.000377902     18227.29
        9018    0.9998975     2.099174 -0.0004608639     18229.75
        9019    0.9991154     2.098933 -0.0004486027     18233.18
        9020    0.9984908     2.098384 -0.0004915936      18236.7
        9021    0.9981854     2.097846 -0.0005666348     18239.34
        9022    0.9979833     2.097208 -0.0005898015     18242.17
        9023    0.9979249     2.096667 -0.0005873814     18244.68
        9024    0.9979546     2.096025 -0.000602723     18246.83
        9025    0.9981584     2.095496 -0.0006511934     18249.15
        9026     0.998343     2.094797 -0.0006150631     18251.55
        9027    0.9982905     2.094062 -0.0006492926     18253.91
        9028    0.9982184     2.093564 -0.0006480512     18257.51
        9029    0.9983145     2.092899 -0.000634876     18260.11
        9030    0.9985194     2.092205 -0.0006708558      18262.4
        9031    0.9989488     2.091522 -0.000674077      18264.9
        9032    0.9992581     2.090881 -0.0007660145     18266.01
        9033    0.9994529     2.090203 -0.0007236311     18267.37
        9034     0.999566     2.089141 -0.0007698861     18269.28
        9035    0.9990795     2.088628 -0.0008158143     18271.74
        9036    0.9987462     2.087801 -0.0007324855     18275.19
        9037    0.9986282     2.086939 -0.0008007784     18278.07
        9038     0.998313     2.086211 -0.0008270133     18279.12
        9039    0.9983148     2.085425 -0.0007719708     18279.33
        9040    0.9984703     2.084493 -0.000786091     18280.27
        9041    0.9984851     2.083852 -0.000769876     18282.68
        9042     0.998561     2.083066 -0.0007134305      18284.7
        9043    0.9986503     2.082345 -0.000768638     18287.05
        9044    0.9985096      2.08164 -0.0007996071     18289.19
        9045    0.9985337     2.080777 -0.0008307096     18293.12
        9046    0.9985176     2.079868 -0.0008604571      18295.8
        9047    0.9983896     2.079022 -0.0008486204     18298.23
        9048    0.9983917     2.078198 -0.0008809264     18301.13
        9049    0.9984654     2.077383 -0.0008618106     18302.12
        9050     0.998486     2.076344 -0.0009316957     18301.77
        9051     0.998503     2.075575 -0.0009316727     18303.23
        9052    0.9986753     2.074471 -0.0008611004      18307.5
        9053    0.9989956     2.073656 -0.0009149761     18310.54
        9054    0.9993248       2.0729 -0.0008661468     18313.88
        9055    0.9994542     2.071915 -0.0008213601     18315.81
        9056    0.9996881     2.071007 -0.0008800859     18317.07
        9057    0.9995879      2.07037 -0.0008960272     18317.67
        9058    0.9994467      2.06938 -0.0007673092     18318.07
        9059    0.9994663     2.068331 -0.0008778294     18319.57
        9060     0.999596     2.067937 -0.0009227791     18321.21
        9061    0.9996783     2.066859 -0.0008236436     18321.68
        9062    0.9999807     2.065688   -0.0009922     18322.27
        9063     1.000295     2.065037 -0.000954506     18324.32
        9064     1.000371     2.063968 -0.0008129618     18326.57
        9065       1.0001     2.063041 -0.0008310102     18327.95
        9066    0.9996988     2.062437 -0.0007854933     18330.27
        9067     0.999608     2.061713 -0.0007689625     18332.88
        9068    0.9997433     2.060827 -0.0008283586     18334.99
        9069     0.999727     2.059965 -0.0007900666     18337.57
        9070    0.9995812     2.059123 -0.0007691567      18340.6
        9071    0.9994224     2.058552 -0.0007644141      18342.7
        9072    0.9992608      2.05775 -0.000752177     18344.49
        9073    0.9992934     2.056908 -0.0008370161     18347.33
        9074    0.9995263     2.056114 -0.0008442316     18349.22
        9075    0.9999787     2.055204 -0.0007853859     18351.63
        9076     1.000506     2.054373 -0.0008270188     18354.01
        9077     1.000818     2.053766 -0.0007998487     18355.99
        9078     1.000925     2.052806 -0.0007804431      18357.7
        9079     1.000896     2.052005 -0.0008606739     18359.26
        9080     1.000938     2.051251 -0.0008486093     18360.71
        9081     1.000841     2.050323 -0.0008192221     18360.49
        9082     1.000871     2.049412 -0.0008447592     18360.43
        9083     1.000944     2.048728 -0.0007912385     18359.76
        9084     1.001218     2.047872 -0.0008092607     18356.19
        9085     1.001568     2.047158 -0.0008323232     18342.48
        9086     1.001766     2.046175 -0.0007691429     18319.05
        9087     1.001644     2.045399 -0.000817125      18299.9
        9088     1.001458     2.044796 -0.0007689067     18291.47
        9089     1.001735      2.04389 -0.0008125547     18284.36
        9090     1.002293     2.043099 -0.000859243     18259.82
        9091     1.002422     2.042148 -0.0008570262     18210.79
        9092      1.00282     2.041359 -0.0007115435     18163.26
        9093     1.003445     2.040462 -0.0006265884     18077.78
        9094     1.001699     2.040253 -0.0007515024     18061.07
        9095     1.001498     2.039642 -0.0007603202     18209.71
        9096     1.003288     2.038353 -0.0007681428     18236.05
        9097     1.004101      2.03742 -0.0007784878     18121.28
        9098     1.002561     2.037181 -0.0006854091     18101.57
        9099     1.002609     2.036528 -0.0006628549     18205.62
        9100     1.003486     2.035611 -0.0008525179     18285.23
        9101     1.003806     2.034769 -0.0008973079     18307.36
        9102     1.003667      2.03377 -0.0008316317     18328.24
        9103     1.003433     2.032939 -0.0007569745     18348.09
        9104      1.00301     2.032284 -0.0006828913     18359.18
        9105     1.002559     2.031741 -0.0007501877     18366.43
        9106     1.002063     2.031039 -0.0007672951     18377.42
        9107     1.001462     2.029938 -0.000813331        18394
        9108     1.000947     2.029215 -0.000891921     18411.01
        9109     1.000806     2.028488 -0.0007862137     18420.97
        9110     1.000856     2.027471 -0.0007560298     18426.55
        9111      1.00088     2.026793 -0.0008127462     18431.57
        9112     1.000762     2.026191 -0.0007460025     18434.53
        9113     1.000632     2.025237 -0.0006997946     18436.45
        9114      1.00073     2.024487 -0.0007698524     18439.61
        9115     1.000641     2.023994 -0.0007647806     18443.61
        9116     1.000609     2.023112 -0.0008007266     18448.03
        9117     1.000519     2.022178 -0.0008587103     18452.05
        9118     1.000458     2.021284 -0.0008241452     18453.93
        9119     1.000619     2.020559 -0.0008538095     18455.49
        9120     1.000898     2.019815 -0.0007258631     18457.05
        9121     1.001229     2.018762 -0.0006938169     18458.12
        9122     1.001205     2.018381 -0.000745978     18458.51
        9123     1.001189     2.017784 -0.0006987961     18459.69
        9124     1.000863     2.016831 -0.0007159356     18461.07
        9125     1.000607     2.015967 -0.0006960165     18464.59
        9126      1.00039     2.015517 -0.0006509597     18467.77
        9127      1.00026        2.015 -0.0006032689     18470.51
        9128     1.000186     2.014227 -0.0006959197     18472.79
        9129     1.000211     2.013554 -0.0007759099     18475.08
        9130      1.00044     2.012733 -0.000690068     18477.19
        9131     1.000688     2.011896 -0.0007405223     18478.37
        9132     1.001058     2.011467 -0.0006629062     18480.36
        9133     1.001454     2.010592 -0.0005654591      18482.5
        9134     1.001518     2.010082 -0.0006213892     18483.86
        9135     1.001533     2.009634 -0.000530353     18486.21
        9136     1.001414     2.008982 -0.0005206785     18487.77
        9137     1.001384     2.008471 -0.000595711     18487.77
        9138     1.001571     2.007999 -0.0005739236     18487.97
        9139     1.002474     2.007252 -0.0005595106     18489.49
        9140      1.00321     2.006686 -0.0005640538     18489.97
        9141     1.003226     2.006233 -0.0005166851     18492.42
        9142     1.003092     2.005743 -0.0004589497     18495.57
        9143     1.003146     2.005185 -0.0004998303     18498.64
        9144     1.002801      2.00485 -0.0005188588     18501.56
        9145     1.002347     2.004233 -0.0005575016     18503.45
        9146     1.002329     2.003667 -0.0005571291     18506.24
        9147     1.002323     2.002955 -0.0005353592     18507.38
        9148     1.002335     2.002622 -0.0005649658     18508.44
        9149     1.002369     2.002092 -0.0005115522     18509.58
        9150     1.002367     2.001408 -0.0005339536     18511.26
        9151     1.001992     2.000909 -0.0005257852     18511.69
        9152      1.00159     2.000486 -0.0004836461     18511.88
        9153     1.001453     1.999989 -0.0004838509     18513.23
        9154     1.001236     1.999473 -0.0005130722     18515.28
        9155      1.00105     1.998973 -0.0005819567      18517.6
        9156     1.000969     1.998433 -0.0005509359     18518.87
        9157     1.000993     1.997661 -0.0006128492     18520.39
        9158     1.001051     1.997269 -0.000627512     18521.99
        9159     1.001555     1.996522 -0.0005488343      18524.9
        9160     1.001824     1.995923 -0.0006187676     18527.01
        9161     1.002115     1.995466 -0.0006192397     18530.24
        9162     1.002441     1.994794 -0.0006382139      18532.5
        9163     1.002774     1.994045 -0.0006218693     18534.17
        9164     1.002929     1.993371 -0.0006541599     18536.79
        9165     1.002778     1.992978 -0.0005947198     18539.61
        9166     1.002633     1.992178 -0.0005825072     18541.63
        9167     1.002525     1.991666 -0.0007059971     18542.98
        9168     1.002499     1.991041 -0.0006329755      18545.6
        9169     1.002498     1.990154 -0.0007117586     18549.22
        9170     1.002355     1.989646 -0.0006985974      18552.1
        9171      1.00227     1.988819 -0.0006457346     18553.27
        9172     1.002165     1.988246 -0.0007046401     18553.95
        9173     1.001945     1.987571 -0.0006761593      18554.2
        9174     1.001794     1.986827 -0.0007035009     18554.42
        9175     1.001608     1.986114 -0.0007425885     18555.67
        9176     1.001354     1.985432 -0.0007424308     18556.25
        9177     1.001336     1.984601 -0.0007013711     18556.27
        9178     1.001445     1.983857 -0.000704384     18556.76
        9179     1.001525     1.983309 -0.0006366791     18557.33
        9180     1.001769     1.982615 -0.0006126764     18558.56
        9181     1.001837     1.982054 -0.0006489261     18560.05
        9182     1.001468     1.981407 -0.0006701526     18560.88
        9183     1.000892     1.980713 -0.0006905788     18561.27
        9184      1.00055     1.979934 -0.0006634833     18562.44
        9185     1.000612     1.979292 -0.0006582438      18564.8
        9186     1.000766     1.978753 -0.0006954056     18566.26
        9187     1.000604      1.97808 -0.0006740872     18567.01
        9188     1.000613     1.977152 -0.0006864838     18569.22
        9189     1.000337     1.976595 -0.0006317666     18569.97
        9190     1.000184     1.976007 -0.0005693379     18570.07
        9191     1.000172     1.975553 -0.000567129     18571.51
        9192      1.00034     1.974875 -0.0005201653     18574.48
        9193     1.000172     1.974327 -0.0006016049     18577.29
        9194     1.000108     1.973926 -0.0005979486     18578.27
        9195     1.000279     1.973147 -0.0007102701     18579.23
        9196     1.000364     1.972483 -0.0006990285     18579.59
        9197     1.000358     1.971486 -0.0006737344     18579.92
        9198     1.000282      1.97113 -0.0006795225     18580.81
        9199     1.000129     1.970452 -0.0005761951     18582.31
        9200     1.000174     1.969765 -0.0006333597      18584.7
        9201     1.000401     1.969181 -0.0006433966     18586.76
        9202     1.000594     1.968597 -0.0006368732     18588.19
        9203     1.000732     1.967878 -0.0006495956     18588.67
        9204     1.000948     1.967218 -0.0006686663     18589.53
        9205     1.001274     1.966583 -0.0006528165     18591.29
        9206     1.001468     1.965922 -0.0006265105      18592.5
        9207     1.001859     1.965267 -0.0006397932     18593.72
        9208      1.00232     1.964712 -0.0006449239     18595.34
        9209     1.002596     1.964024 -0.0006742042     18597.52
        9210     1.002796     1.963342 -0.0006900682     18600.45
        9211     1.002908      1.96257 -0.0006960995     18602.66
        9212     1.003224     1.961951 -0.0006663938     18605.14
        9213      1.00352     1.961239 -0.0007494887     18606.48
        9214     1.003642     1.960677 -0.0007770834     18607.23
        9215     1.003885     1.959572 -0.0007252912     18609.26
        9216     1.003817     1.958843 -0.0007860187     18610.19
        9217     1.004086     1.958338 -0.0006718071     18612.81
        9218     1.004128     1.957533  -0.00072976     18613.57
        9219     1.003958     1.956885 -0.0007749279     18613.94
        9220     1.003687     1.955924 -0.0007238032     18614.98
        9221      1.00368     1.955238 -0.000751802     18615.91
        9222     1.003539     1.954637   -0.0006515     18617.45
        9223     1.003238     1.953878 -0.000647421     18619.89
        9224     1.002602     1.953318 -0.000754736     18620.84
        9225     1.002201     1.952649 -0.0007579392      18622.3
        9226     1.002127     1.951618 -0.0008326233     18624.65
        9227     1.002059     1.950846 -0.0007991347     18626.39
        9228     1.002054     1.949987 -0.0006560747     18628.59
        9229     1.001741     1.949452 -0.0007074904     18630.49
        9230     1.001581     1.948994 -0.0006675664     18631.71
        9231     1.001478     1.948016 -0.000735685     18632.01
        9232     1.001464     1.947317 -0.000816093     18632.39
        9233     1.001699     1.946509 -0.0007218603      18632.8
        9234     1.002054      1.94573 -0.0006601327     18632.19
        9235     1.002069     1.945129 -0.0006267062     18632.24
        9236      1.00188     1.944677 -0.0006212291     18633.86
        9237     1.001619     1.944002 -0.0006819447     18635.53
        9238     1.001241     1.943245 -0.0007642132     18636.63
        9239      1.00123     1.942401 -0.0007389901     18637.74
        9240     1.001108      1.94162 -0.0007395807        18639
        9241     1.000911     1.941047 -0.0007352834      18640.6
        9242     1.000728     1.940286 -0.0006889511     18641.72
        9243     1.000563      1.93946 -0.0007301641      18642.4
        9244     1.000509     1.938864 -0.0007140557     18641.49
        9245     1.000721     1.938126 -0.0006650075     18639.77
        9246     1.000874      1.93743 -0.0006526952      18638.1
        9247     1.001217       1.9368 -0.000667866     18635.72
        9248     1.001289     1.936253 -0.0007297659     18626.05
        9249     1.001575     1.935454 -0.0007035188     18585.03
        9250     1.001994     1.934511 -0.000693883     18476.58
        9251     1.000702     1.933986 -0.0007138555     18407.97
        9252     1.000031     1.933478 -0.0006811343     18513.03
        9253     1.001045     1.932599 -0.000658021      18580.2
        9254     1.001993     1.931787 -0.0006462147     18515.96
        9255     1.001578     1.931353 -0.0006175004     18427.29
        9256     1.001154     1.930893 -0.0006048266     18511.13
        9257     1.001275     1.930129 -0.0006721163     18613.23
        9258     1.001386     1.929367 -0.0007170966     18660.81
        9259     1.001203     1.928665 -0.0007132156     18671.53
        9260     1.000902     1.928024 -0.0007370085     18675.28
        9261     1.000649     1.927276 -0.0006682284     18677.65
        9262     1.000632     1.926419  -0.00063678     18679.97
        9263     1.000541     1.925992 -0.0006621261     18681.79
        9264     1.000609     1.925477 -0.0006268139     18683.59
        9265     1.000479     1.924628 -0.0007293616     18684.55
        9266     1.000168     1.923912 -0.0007475926     18683.73
        9267    0.9998124     1.923075 -0.0006877226     18682.89
        9268     0.999435     1.922487 -0.0006537282      18683.8
        9269    0.9991063     1.921877 -0.0006092965     18686.09
        9270    0.9989885     1.921297 -0.0006284997      18687.1
        9271    0.9990969     1.920637 -0.000632979     18688.26
        9272    0.9994677     1.919973 -0.0006269784     18690.96
        9273    0.9996811     1.919345 -0.0006522069      18693.3
        9274    0.9998583     1.918789 -0.0006586133     18694.47
        9275     1.000269     1.918029 -0.0006263163     18695.24
        9276     1.000191     1.917338 -0.0006982841      18694.4
        9277     1.000096      1.91684 -0.0006620728     18695.72
        9278     1.000376     1.915996 -0.0006026426     18698.34
        9279     1.000567      1.91538 -0.0006283744     18699.95
        9280     1.000681     1.914928 -0.0005848988     18699.79
        9281     1.000858     1.914326 -0.0005873693     18701.67
        9282     1.000875     1.913657 -0.0006536314     18702.51
        9283      1.00097     1.913031 -0.0006715359      18703.3
        9284     1.001042     1.912313 -0.0005981758     18703.89
        9285     1.001005      1.91164 -0.0005990651      18706.2
        9286     1.000698     1.911264 -0.000613758     18708.29
        9287     1.000339     1.910635 -0.0005728314     18708.69
        9288    0.9999506     1.909858 -0.000660126     18710.32
        9289    0.9996423     1.909349 -0.0006196058     18711.96
        9290    0.9993908     1.908623 -0.0005616094     18712.07
        9291    0.9991689     1.908156 -0.0005560009     18712.26
        9292    0.9990607     1.907612 -0.0005174335     18712.88
        9293    0.9991043     1.907125 -0.0005691162     18713.81
        9294    0.9993646     1.906554 -0.0005641382     18715.13
        9295    0.9995969      1.90588 -0.0006460255     18717.07
        9296    0.9996774     1.905355 -0.0006008269     18718.18
        9297    0.9995803      1.90454 -0.0005725617      18719.2
        9298    0.9994601      1.90415 -0.0005832793     18720.67
        9299    0.9993653     1.903589 -0.0005160423     18721.96
        9300    0.9993413     1.903022 -0.0005258461     18724.51
        9301    0.9993937     1.902476 -0.0005633449     18725.85
        9302    0.9991934     1.902047 -0.0005576372     18726.53
        9303      0.99908     1.901336 -0.0005665317     18726.36
        9304     0.999332     1.900792 -0.0005942121     18726.81
        9305    0.9994335      1.90021 -0.0005248888      18726.6
        9306     0.999577      1.89967 -0.0005268062     18726.94
        9307    0.9998614     1.899236 -0.0005544167     18727.77
        9308      1.00023     1.898684 -0.0005496365     18729.35
        9309      1.00032     1.897992 -0.0005721694     18731.04
        9310     1.000312     1.897471 -0.0005968256     18731.61
        9311     1.000419     1.896948 -0.000579064     18730.82
        9312     1.000716     1.896297 -0.0005786632     18731.02
        9313     1.000813     1.895676 -0.0005783049     18732.07
        9314     1.000952     1.895157 -0.0005110071     18733.72
        9315     1.000811     1.894635 -0.0005518489      18734.9
        9316     1.000781     1.894253 -0.0006166442     18736.47
        9317     1.000839     1.893469 -0.0006121037     18739.13
        9318     1.000847      1.89269 -0.0006569888     18741.39
        9319     1.000906     1.892186 -0.0006293117     18742.69
        9320     1.000877     1.891625 -0.0005341243     18742.08
        9321     1.000685     1.890952 -0.0005739195     18740.14
        9322     1.000397     1.890554 -0.0006019093     18739.21
        9323     1.000407     1.889891 -0.0006146227     18740.05
        9324     1.000298     1.889218 -0.000629175     18741.13
        9325     1.000475     1.888493 -0.0006142681     18742.75
        9326     1.000723     1.888037 -0.0005608441     18744.57
        9327     1.001128     1.887433 -0.0005338729     18746.82
        9328     1.001346     1.886974 -0.0006297204     18747.25
        9329     1.001381     1.886358 -0.0006252002     18748.63
        9330     1.001661     1.885518 -0.0006514621     18750.56
        9331     1.002122     1.884933 -0.0006381959     18751.78
        9332     1.002637     1.884368 -0.0005276557      18750.9
        9333     1.003107     1.883805 -0.0005111356     18749.66
        9334     1.003539     1.883408 -0.0005852448     18750.42
        9335     1.003558     1.882888 -0.0005932224     18753.34
        9336     1.003436     1.882027 -0.0006616667     18756.25
        9337     1.003441     1.881432 -0.0006411086     18758.87
        9338     1.003664     1.880761 -0.0005611395     18760.72
        9339     1.003636     1.880324 -0.0005965172     18760.19
        9340     1.003512     1.879783 -0.0005649869     18758.75
        9341      1.00351     1.879046 -0.0005889823     18758.59
        9342      1.00342     1.878501 -0.0006287622     18758.29
        9343     1.003565     1.877968 -0.0006163791        18760
        9344     1.003493     1.877268 -0.0006448756     18760.44
        9345     1.003461      1.87658 -0.0006747084      18761.2
        9346     1.003323     1.875921 -0.0006118082     18762.09
        9347     1.002741     1.875269  -0.00056754     18763.29
        9348      1.00234     1.874821 -0.0005488611     18764.23
        9349     1.002034      1.87431 -0.0005415399     18762.57
        9350     1.001934     1.873726 -0.0006215269     18759.16
        9351      1.00178     1.873103 -0.0006782791     18756.77
        9352     1.001574     1.872334 -0.0006056113     18758.46
        9353     1.001481     1.871597 -0.0005835451     18761.22
        9354     1.001161     1.871304 -0.0005962896     18762.47
        9355     1.001013     1.870769 -0.0006101348      18764.5
        9356     1.001195     1.869949 -0.0006926481     18768.79
        9357     1.001297     1.869157 -0.0007046751     18772.55
        9358     1.001453     1.868533 -0.0006527831     18774.21
        9359     1.001414      1.86795 -0.0005853098     18774.43
        9360     1.001296     1.867338 -0.0005716146     18773.67
        9361     1.001154     1.866815 -0.0006115244      18771.4
        9362     1.001339     1.866246 -0.0005788243     18768.16
        9363     1.001716     1.865504 -0.0005899159     18768.14
        9364     1.002284     1.865023 -0.0005712814     18770.11
        9365      1.00261     1.864456 -0.0005920299     18771.06
        9366     1.002723     1.863961 -0.0006457321     18771.71
        9367     1.002587     1.863136 -0.0006075201     18775.77
        9368     1.001997      1.86244 -0.0006184313     18780.43
        9369     1.001527     1.862026 -0.0005619786     18782.85
        9370     1.001378     1.861488 -0.0005462389      18783.4
        9371     1.000976     1.860888 -0.0006032578     18784.76
        9372     1.000533     1.860255 -0.000628172     18786.34
        9373     1.000509     1.859613 -0.0006312456        18788
        9374     1.000468     1.858975 -0.0006479844     18786.01
        9375     1.000717     1.858363 -0.0006262938     18785.05
        9376     1.001135     1.857663 -0.0006028872     18785.29
        9377     1.001517     1.857107  -0.00061519      18786.5
        9378     1.001703     1.856563 -0.0005672547     18787.71
        9379     1.001892     1.855902 -0.0005980729      18789.8
        9380     1.001689     1.855394 -0.0005962754      18789.6
        9381     1.001576     1.854715 -0.0006042797      18789.8
        9382     1.001428     1.854178 -0.0006390954     18790.99
        9383      1.00143     1.853485 -0.0005756754     18792.45
        9384     1.001578     1.852838 -0.0006060816     18793.67
        9385     1.001588     1.852412 -0.0005743423     18795.09
        9386     1.001368     1.851754 -0.0005627931     18795.98
        9387     1.001114     1.851187 -0.000605589     18796.99
        9388     1.000942     1.850586 -0.0005988931     18797.41
        9389     1.001218      1.84999 -0.0006156266     18797.34
        9390     1.001375     1.849358 -0.0006461428     18796.91
        9391      1.00108     1.848725 -0.0006322626      18796.5
        9392     1.000683     1.848002 -0.0006257615     18794.61
        9393     1.000248     1.847461 -0.0006257833      18794.3
        9394     1.000181     1.846855 -0.0005989056     18794.04
        9395     1.000376     1.846222 -0.0006169686     18795.07
        9396     1.000299     1.845606 -0.0006330223     18796.29
        9397     1.000018     1.844993 -0.0006066004     18796.88
        9398     1.000182     1.844323 -0.0006354771     18798.25
        9399     1.000248     1.843795 -0.0006338138     18799.82
        9400     1.000124     1.843064 -0.0006268247     18799.68
        9401     1.000103     1.842458 -0.0006275473     18799.83
        9402    0.9998862     1.841816 -0.0005492654     18799.41
        9403    0.9996147     1.841285 -0.000607104     18800.79
        9404    0.9994791     1.840867 -0.0005494529     18802.08
        9405     0.999685     1.840029 -0.0006185424     18803.62
        9406    0.9998304     1.839618 -0.0006207442     18804.95
        9407     1.000208     1.838811 -0.0005574189     18805.68
        9408     1.000328     1.838384 -0.0006733308     18804.92
        9409     1.000289       1.8378 -0.0005998361      18804.8
        9410      1.00018     1.836925 -0.0005896513     18806.53
        9411     1.000034     1.836412 -0.0006450141     18807.31
        9412    0.9998569     1.836026 -0.0006047214     18807.32
        9413    0.9998567      1.83522 -0.0006093687     18808.56
        9414    0.9996524     1.834506 -0.0006613074     18809.97
        9415    0.9992973     1.833974 -0.0006149574     18810.49
        9416    0.9991214      1.83338 -0.0005869827     18811.57
        9417    0.9989262      1.83276 -0.0006191781     18810.61
        9418     0.999024     1.832158 -0.0006598793     18808.61
        9419    0.9991751     1.831498 -0.0006413429     18807.79
        9420    0.9994461     1.830741 -0.0006085845     18807.63
        9421    0.9995445     1.830194 -0.0006008938      18806.4
        9422    0.9996307     1.829724 -0.0005766192     18805.91
        9423    0.9997435     1.829094 -0.0005843896     18805.39
        9424    0.9998574     1.828434 -0.0006309346     18805.24
        9425     0.999915     1.827857 -0.0006186211      18805.6
        9426       1.0001       1.8272 -0.0006195927      18805.3
        9427     1.000055     1.826619 -0.0006320661     18805.89
        9428    0.9995523     1.825956 -0.0006453322     18805.59
        9429    0.9993175     1.825329 -0.000629669     18804.46
        9430    0.9990849     1.824619 -0.0006350195     18804.83
        9431    0.9987128     1.824101 -0.0006062781     18806.03
        9432    0.9983819     1.823416 -0.0005932189     18806.25
        9433    0.9984727     1.822904 -0.0005829492     18807.54
        9434    0.9987541     1.822246 -0.0005590864     18807.87
        9435    0.9990437     1.821769 -0.0005703055     18806.95
        9436    0.9991815      1.82118 -0.0005966275     18807.29
        9437    0.9991247     1.820622 -0.000611323     18807.31
        9438    0.9991617     1.819859 -0.0006070536     18807.59
        9439     0.999261     1.819324 -0.0006685199     18807.38
        9440    0.9993028     1.818751 -0.0006234519     18807.14
        9441    0.9992168     1.817948 -0.0006008782     18807.11
        9442    0.9989926     1.817365 -0.000609441     18806.75
        9443    0.9989123      1.81692 -0.000589111     18807.01
        9444    0.9986122     1.816314 -0.0005997988     18806.36
        9445    0.9984345     1.815592 -0.0006346549      18806.1
        9446     0.998216     1.814966 -0.0006176162     18806.18
        9447    0.9981603     1.814382 -0.000567752     18807.29
        9448    0.9982428     1.813843 -0.0005607474      18807.3
        9449    0.9982029     1.813321 -0.000567525     18807.64
        9450    0.9981715     1.812723 -0.0005677184     18806.22
        9451    0.9979769     1.812112 -0.0005317474     18805.91
        9452    0.9979257     1.811572 -0.0005928966     18805.24
        9453    0.9980708     1.811194 -0.0006492591     18804.74
        9454    0.9985948     1.810352 -0.0006500849     18804.36
        9455    0.9991459     1.809514 -0.0006719578     18804.36
        9456    0.9997172     1.808972 -0.0005903803      18804.2
        9457     1.000241     1.808506 -0.0005402938     18803.21
        9458      1.00063      1.80799 -0.0005490693      18802.5
        9459      1.00058     1.807353 -0.0005763451     18801.08
        9460     1.000339     1.806776 -0.0005976693     18802.12
        9461     1.000046     1.806201 -0.0005772945     18803.73
        9462    0.9997082     1.805599 -0.0005286064     18804.96
        9463    0.9990354     1.805044 -0.0005568998     18805.92
        9464    0.9983438     1.804661 -0.0005753878     18806.53
        9465    0.9978477     1.803973 -0.0005643125     18807.02
        9466    0.9973882     1.803298 -0.0006302266     18808.58
        9467    0.9969465     1.802787 -0.0005941256     18808.71
        9468     0.996681      1.80214 -0.0005260412     18808.37
        9469    0.9966297     1.801596 -0.0005256923     18809.11
        9470    0.9965527     1.801194 -0.0005211284     18809.33
        9471    0.9964255     1.800684 -0.0005247009        18809
        9472    0.9963332     1.800056 -0.000546013     18807.26
        9473    0.9962786     1.799498 -0.0006020366     18805.65
        9474    0.9962487      1.79901 -0.0005771721     18804.66
        9475    0.9959561     1.798276 -0.0005354677     18803.42
        9476    0.9959802     1.797747 -0.0005400795        18803
        9477    0.9961365     1.797356 -0.0005555404     18802.88
        9478    0.9964107     1.796849 -0.0005277189     18803.41
        9479    0.9967949     1.796054 -0.0005833054     18802.89
        9480    0.9969323     1.795636 -0.0005955153     18802.78
        9481    0.9964857     1.795023 -0.0004919809     18802.51
        9482    0.9960046     1.794467 -0.0005601541     18800.62
        9483    0.9959263     1.794086 -0.0005499591     18797.09
        9484    0.9958658     1.793396 -0.0005620068     18787.94
        9485    0.9958648     1.792823 -0.0006294098      18769.7
        9486    0.9960201     1.792219 -0.0005020344     18760.89
        9487    0.9963751     1.791568 -0.0005081495     18766.53
        9488    0.9964556     1.791388 -0.0005395686     18775.95
        9489    0.9962644      1.79079 -0.0004876705     18784.99
        9490    0.9959922     1.790061 -0.0005984102     18786.65
        9491    0.9958077     1.789618 -0.0006200866     18777.18
        9492    0.9958414     1.788994 -0.0006085532     18760.62
        9493     0.995924      1.78831 -0.0006158381     18757.67
        9494    0.9958773     1.787627 -0.0005570873      18764.8
        9495    0.9958598     1.787154 -0.0005298149     18776.62
        9496    0.9956735     1.786766 -0.0004660916     18785.08
        9497    0.9953523     1.786191 -0.000552185     18786.74
        9498    0.9951183     1.785762 -0.0006439396      18786.4
        9499    0.9950612     1.784945 -0.0007185047     18785.76
        9500    0.9950612     1.784945 -0.0007185047     18785.76
