# This file has been produced by extranormal (v 1.0.1 - February 23, 2017)
# O. Roudenko - Synchrotron SOLEIL. Covered by GPL licence.
#Data from HDF File: /nfs/ruche-rock/rock-soleil/com-rock/2022/Projets/20220725_Gilles/op3_cell3_cell4/op3_cell4_pos2_dq1/op3_cell4_pos2_dq1_0015/op3_cell4_pos2_dq1_0015_07636.nxs to op3_cell4_pos2_dq1_0015_07659.nxs
#Time at start=2022-07-27 12:52:25.235
#Time from start (seconds)=64.977404704
#Sample temperature (C)=nan
# Normalization -------------
# pivot spectrum: LNO_pristine_av1100_00001.txt
# E0=8332.88   Eshift=0.19999951578
# E0_pivot = 8349.6
# pre-edge params: from E0_pivot-240.0 to E0_pivot-50.0
# pre-edge range: [8109.6, 8299.6]
# post-edge params: from E0_pivot+70.0 to E0_pivot+1155.0
# post-edge range: [8419.6, 9500.0]
# I jump at E0_pivot = 0.725011084805
# shifted energy	normalized	reference	ref.derivative	I0
        8060  0.001580316     1.037595 -0.0004789907      14959.7
        8065  0.001580316     1.037595 -0.0004789907      14959.7
        8070  0.001695002     1.035267 -0.0004575772     14984.62
        8075  0.002190682     1.032936 -0.0004469026     15007.82
        8080  0.003187464     1.030905 -0.000450033     15030.09
        8085  0.002718191     1.028657 -0.0004430026     15049.24
        8090  0.004361456     1.026267 -0.0004516536      15071.3
        8095  0.003048515     1.024076 -0.0004554969     15096.68
        8100  0.001801508     1.021872 -0.0004403583     15118.09
        8105  0.002129432     1.019547 -0.0004355585     15140.87
        8110  0.001411934      1.01746 -0.0004360911     15159.58
        8115 0.0006339357     1.015365 -0.0004183735     15178.73
        8120 0.0007830878      1.01315 -0.0004208058     15199.72
        8125 0.0002923913     1.011179 -0.0004261806     15220.07
        8130 -0.0002397246     1.009043 -0.000414328     15242.56
        8135 0.0004280701     1.006841 -0.0004174303     15264.21
        8140 0.0008918252     1.004864 -0.0004127123      15282.8
        8145 0.0005080066     1.002831 -0.0004091797     15305.11
        8150 -0.0003483472     1.000789 -0.0004127029     15322.46
        8155 -0.0003648555    0.9986576 -0.0004107569     15345.22
        8160 -0.0004618812    0.9966098 -0.000427457     15364.35
        8165 -0.0004879193    0.9946155 -0.0004241955     15392.68
        8170 0.0002654663    0.9922401 -0.0004260052     15411.08
        8175 -0.0006730436    0.9901737 -0.0004344054     15433.58
        8180 3.836702e-05    0.9880897 -0.0004145094     15452.77
        8185 0.0004264273    0.9859274 -0.0004160382     15473.46
        8190 0.0001817414    0.9839499 -0.0004137423     15494.96
        8195 -0.0002475435    0.9818529 -0.0004090278     15516.78
        8200 -0.0006705532    0.9798149 -0.0004084438     15533.52
        8205 -0.001285963    0.9777468 -0.0004212497     15557.46
        8210 -0.001491705     0.975781 -0.0004186707     15574.23
        8215 -0.001669291    0.9734279 -0.0004096111     15595.87
        8220 -0.000383372    0.9714415 -0.0004188476     15617.93
        8225 -0.001183337    0.9695546 -0.0003974022        15640
        8230 0.0002533236     0.967404 -0.0003984739     15660.87
        8235 -0.0006921226    0.9654799 -0.0004038898     15677.82
        8240  -0.00109011     0.963472 -0.000373847     15699.55
        8245 -0.0008691027    0.9614768 -0.0003749116     15720.44
        8250 -0.0006135292    0.9599271 -0.0003790314     15739.99
        8255 0.0001185304    0.9579816 -0.0003610041     15758.12
        8260  0.002246489    0.9558914 -0.0003706524     15778.13
        8265  0.001163358    0.9542567 -0.0003546446     15797.51
        8270 2.150354e-05    0.9525141 -0.000337832     15819.93
        8275 0.0006942963    0.9508887 -0.000328879     15836.07
        8280 0.0007608426    0.9491347 -0.0003300186     15854.54
        8285 0.0001308075    0.9476792 -0.0003173283     15867.66
        8290 0.0004035616    0.9459137 -0.0002861586      15880.2
        8295  0.001156738    0.9445422 -0.0002817749     15893.05
        8300   0.00351653    0.9434116 -0.0002451449     15813.17
      8300.2  0.003613568    0.9433667 -0.0002436239     15809.82
      8300.4    0.0037485    0.9433404 -0.0002051565     15799.59
      8300.6  0.003547437    0.9433088 7.051281e-05     15790.35
      8300.8   0.00354553    0.9433391 0.0001978125     15784.12
        8301  0.003533761    0.9434231 0.0001876121     15780.22
      8301.2  0.003480683    0.9434987 2.829927e-05     15777.11
      8301.4  0.003528761    0.9434589 -0.0002728754     15776.13
      8301.6  0.003561322    0.9433618 -0.0004230254     15775.27
      8301.8  0.003558326    0.9432048 -0.0005702748     15774.66
        8302  0.003782346    0.9431603 -0.0004708749     15775.14
      8302.2  0.003941719    0.9430027 -0.0004173256     15775.16
      8302.4  0.004017976    0.9429851 -0.0006509745     15774.89
      8302.6   0.00407211     0.942871 -0.0004344251     15773.36
      8302.8  0.004235262    0.9426395 -0.0004740997     15771.46
        8303  0.004307616    0.9426552 -0.0003639121     15768.53
      8303.2  0.004356178    0.9426058 -0.0002182626     15764.03
      8303.4  0.004610018    0.9425798 -0.0002402497     15759.22
      8303.6  0.004816149    0.9424649 -0.0001102248     15752.16
      8303.8  0.004915013     0.942463 -4.724991e-05     15742.73
        8304  0.005009752    0.9425176 -9.137816e-06     15730.69
      8304.2  0.005134782     0.942542 -0.0001397503     15715.15
      8304.4  0.005390843    0.9424576 -0.0002788879     15695.73
      8304.6  0.005595857    0.9423512 -0.0004553005     15668.35
      8304.8  0.006014827    0.9422945 -0.0006706377     15632.43
        8305  0.006523299    0.9421778 -0.0007706374     15585.85
      8305.2  0.007398509     0.941921 -0.0007160241     15527.44
      8305.4  0.007975668    0.9417347 -0.0003500737     15454.43
      8305.6  0.008376402    0.9417217 0.0001681509     15373.88
      8305.8  0.008308012    0.9418977 0.0005275631     15289.36
        8306  0.007922952    0.9420556 0.0007638873     15214.41
      8306.2   0.00737497    0.9421567 0.0006881624     15154.46
      8306.4  0.006709611    0.9423328 0.0006503624     15112.44
      8306.6  0.005878075    0.9424483 0.0005908246     15091.03
      8306.8  0.004933782    0.9425759 0.0004412747     15095.74
        8307  0.004146205    0.9426294 0.0003172123      15119.9
      8307.2  0.003659285    0.9426858 0.0002548127     15158.61
      8307.4  0.003401548     0.942702 0.0003310249     15206.21
      8307.6  0.003115769    0.9427797 0.0003050629      15258.8
      8307.8  0.002964485    0.9428942  0.000460325     15315.49
        8308  0.002738195    0.9429299 0.0004588621     15373.87
      8308.2  0.002395893    0.9430703 0.0002864249     15432.26
      8308.4  0.002228347    0.9431468 0.0002450867     15493.73
      8308.6  0.002018513    0.9431233 -9.713805e-05     15554.48
      8308.8  0.002014427    0.9431259 -0.0003251004     15617.16
        8309  0.002140035    0.9429926 -0.0004914505     15674.16
      8309.2   0.00240109    0.9428867 -0.0007031372     15724.49
      8309.4  0.002731592    0.9427302 -0.0005909372     15763.79
      8309.6  0.003266587    0.9425634 -0.0004793496     15790.06
      8309.8  0.003737058    0.9425198 -0.0003134747     15804.02
        8310  0.003982829    0.9425032 -0.0001855503     15806.13
      8310.2   0.00409132    0.9424794 -0.0003299121      15800.5
      8310.4  0.004102958     0.942415 -0.0001851623     15793.67
      8310.6   0.00399908    0.9422559 -0.0001199624     15787.27
      8310.8  0.003915049    0.9423551 -8.942456e-05     15784.98
        8311  0.003571975    0.9423834 9.098709e-05     15786.41
      8311.2   0.00328588    0.9423434 -7.971305e-05     15793.02
      8311.4  0.003356758    0.9423287 -0.0003065629     15801.07
      8311.6  0.003656929    0.9422913 -0.0004615373     15803.25
      8311.8  0.003946163    0.9421382 -0.0003672996     15796.72
        8312  0.004202927    0.9419742 -0.0001974865     15784.82
      8312.2  0.004267391    0.9420349 0.0002334132     15769.86
      8312.4   0.00429838    0.9421334 0.0005397873     15756.44
      8312.6  0.004184543    0.9423249 0.0004646123        15744
      8312.8    0.0038806     0.942406 0.0003879738     15734.87
        8313  0.004055863    0.9424065 -9.071331e-05     15729.68
      8313.2  0.004528791    0.9424437 -0.000427151     15719.96
      8313.4  0.005263742    0.9422523 -0.0008317382     15699.76
      8313.6  0.006027272    0.9420643 -0.001130812     15663.66
      8313.8  0.007045887    0.9417411 -0.0008697368     15608.98
        8314  0.008088846    0.9415391 -0.000574361     15538.24
      8314.2  0.008760251    0.9415565 5.852629e-05      15452.4
      8314.4  0.008971471    0.9416048 0.0005933134      15363.4
      8314.6  0.008756642     0.941788 0.0009716638     15283.27
      8314.8  0.008178136    0.9420137  0.001494651     15217.08
        8315  0.007349345    0.9423339  0.001766737     15173.69
      8315.2  0.006403962    0.9428005  0.001729649     15155.79
      8315.4  0.005442636    0.9432014  0.001369724     15160.75
      8315.6  0.004789223    0.9433975 0.0009714617     15187.81
      8315.8  0.004623222    0.9434297 0.0006230245     15228.31
        8316  0.004615343    0.9435777 0.0004354003      15273.6
      8316.2  0.004614705    0.9436998  0.000550825     15318.84
      8316.4  0.004784837    0.9437458 0.0005705998     15362.88
      8316.6  0.004889686    0.9438703 0.0004969503     15405.27
      8316.8  0.004876676    0.9440342 0.0006360124      15446.3
        8317  0.004838204    0.9440973 0.0006118118      15487.6
      8317.2  0.004854655    0.9442546 0.0003325625     15529.23
      8317.4  0.004884665    0.9443598 0.0003191873     15571.06
      8317.6  0.004921612    0.9443002 0.0002244002     15611.45
      8317.8  0.004964366    0.9443527 0.0003029628     15652.18
        8318  0.005007507    0.9444341 0.0004124248      15691.7
      8318.2  0.005145253    0.9446021 0.0003122999     15728.95
      8318.4  0.005278158    0.9446302 0.0002644121     15760.78
      8318.6  0.005531639    0.9446025 9.906275e-05     15788.01
      8318.8  0.005612449    0.9446456 0.0002010753     15810.87
        8319  0.005887172    0.9446814 0.0003322628     15830.28
      8319.2  0.006067951     0.944791 0.0004756005     15846.51
      8319.4  0.006158332    0.9448683 0.0006953127     15860.13
      8319.6  0.006224948    0.9450261 0.0007862126     15871.86
      8319.8  0.006268227    0.9452376 0.0008109371     15882.06
        8320  0.006299546      0.94542  0.000654987     15891.09
      8320.2  0.006207779    0.9455171 0.0004449501     15898.97
      8320.4  0.006200382    0.9455501 0.0004805876     15905.97
      8320.6  0.006390307    0.9455936 0.0005318634     15912.87
      8320.8  0.006475901    0.9458045  0.000912763      15918.5
        8321  0.006535924    0.9459426  0.001101025     15924.32
      8321.2  0.006430074    0.9462803  0.001079701     15928.99
      8321.4  0.006540772    0.9464744  0.001335487     15934.03
      8321.6  0.006637043    0.9466682    0.0011997      15938.9
      8321.8  0.006706928     0.947011  0.001197125     15944.23
        8322  0.006828177    0.9472401   0.00132885     15949.52
      8322.2  0.006830836    0.9474321  0.001205138     15954.76
      8322.4  0.006991161    0.9477313  0.001372525     15960.65
      8322.6  0.007041046    0.9479751   0.00143295      15965.6
      8322.8  0.007112641    0.9483381  0.001554063     15971.48
        8323  0.007133326    0.9485785    0.0016409     15977.75
      8323.2  0.007157019    0.9489746  0.001603463     15985.11
      8323.4  0.007224269    0.9492878    0.0017216     15992.65
      8323.6  0.007150612    0.9496209  0.001754412     15999.38
      8323.8  0.007316688    0.9499558   0.00171885      16007.5
        8324  0.007340285    0.9503781  0.001682137     16014.26
      8324.2  0.007585863    0.9506629  0.001614813     16021.46
      8324.4   0.00760877    0.9509666  0.001723826     16026.25
      8324.6  0.007840279    0.9512476   0.00214675     16030.97
      8324.8  0.007953267    0.9517572  0.002287601     16034.87
        8325  0.008031042    0.9523803  0.002550663     16037.67
      8325.2  0.008199739    0.9527967  0.002590062     16039.98
      8325.4  0.008275044    0.9532881  0.002400489     16041.85
      8325.6  0.008463231    0.9538292  0.002839601     16043.74
      8325.8  0.008727223    0.9543007  0.003191225     16045.39
        8326   0.00882537    0.9550683  0.003366338     16046.67
      8326.2  0.009001818    0.9558411  0.003637388     16048.28
      8326.4  0.009100558    0.9565223     0.003719     16049.04
      8326.6  0.009372757    0.9572106  0.003889526     16050.65
      8326.8   0.00955864    0.9580435  0.004320326     16051.53
        8327   0.00976033    0.9589527  0.004760226     16052.34
      8327.2   0.01001036    0.9599785  0.005169238     16053.38
      8327.4   0.01029324    0.9610188  0.005532138     16054.86
      8327.6   0.01052785    0.9621789  0.005784726     16055.74
      8327.8   0.01067514    0.9633784  0.006223801     16056.36
        8328   0.01094166    0.9646063  0.006627738     16057.68
      8328.2   0.01112262    0.9659978  0.007014552     16058.22
      8328.4   0.01136566    0.9674811  0.007648564     16058.79
      8328.6   0.01159544    0.9689901  0.008156252     16059.78
      8328.8   0.01184054    0.9707252   0.00892179     16060.92
        8329   0.01208515    0.9725228   0.01009048     16061.59
      8329.2   0.01241817    0.9746185   0.01121025     16062.59
      8329.4   0.01280289    0.9770625   0.01276304     16063.94
      8329.6   0.01313811    0.9796934   0.01424958     16064.58
      8329.8   0.01351501    0.9827332   0.01612856     16065.95
        8330   0.01400187    0.9860182   0.01871836     16067.47
      8330.2   0.01438524    0.9899653   0.02193142      16067.6
      8330.4   0.01489601    0.9946681   0.02583271     16068.73
      8330.6   0.01544516     1.000278   0.03066665     16070.02
      8330.8    0.0160033     1.006684   0.03639292     16070.48
        8331   0.01662523     1.014499   0.04408707     16071.61
      8331.2   0.01716458     1.023782   0.05398412     16071.93
      8331.4   0.01785826     1.035548   0.06536248     16072.36
      8331.6   0.01858859     1.049872   0.07852466     16072.99
      8331.8   0.01947794     1.066789   0.09189072     16073.79
        8332   0.02048232     1.086602    0.1052154     16074.06
      8332.2   0.02183267     1.109061    0.1180839     16074.46
      8332.4   0.02331132     1.134044    0.1290042     16074.24
      8332.6   0.02506116     1.161256    0.1376541     16074.44
      8332.8    0.0270762     1.189805    0.1437075     16074.46
        8333    0.0294021     1.219184    0.1471279     16074.75
      8333.2   0.03199693      1.24901    0.1474563     16075.31
      8333.4   0.03473955     1.278958    0.1462165     16074.42
      8333.6   0.03767748      1.30777    0.1424153     16074.18
      8333.8   0.04059516     1.336157    0.1377283     16073.95
        8334   0.04344078     1.362942     0.133364     16073.56
      8334.2   0.04614872     1.389141    0.1275088     16073.22
      8334.4   0.04854777     1.414462    0.1202903     16072.74
      8334.6   0.05077562     1.438164    0.1121002     16073.58
      8334.8    0.0520479     1.459174    0.1030002     16073.25
        8335   0.05283471     1.478821   0.09395228     16072.97
      8335.2   0.05315511     1.496862   0.08633274     16073.11
      8335.4   0.05293627     1.513326   0.07859627     16073.03
      8335.6   0.05258518     1.528241   0.07041181     16073.55
      8335.8   0.05210644     1.541698   0.06323868     16073.57
        8336   0.05186956     1.553191    0.0569566     16075.04
      8336.2   0.05153647     1.563917   0.05181167     16075.27
      8336.4   0.05142549     1.573806   0.04806944     16075.81
      8336.6   0.05139836     1.583147   0.04483847     16076.22
      8336.8   0.05191124     1.591647   0.04258186      16077.8
        8337   0.05256506     1.599788   0.04086089     16078.99
      8337.2   0.05326599     1.607871    0.0412052      16079.5
      8337.4   0.05434044     1.615836   0.04246044      16081.4
      8337.6   0.05547403     1.624611   0.04472877     16081.84
      8337.8   0.05691188     1.633756   0.04763743      16083.2
        8338   0.05858447     1.643654   0.05101522      16084.7
      8338.2   0.06027906     1.653946   0.05491601     16085.34
      8338.4   0.06222393     1.665423   0.05835495     16086.87
      8338.6   0.06420785     1.677689   0.06187969     16087.86
      8338.8   0.06633676     1.690338   0.06383688     16088.57
        8339   0.06877198      1.70345      0.06478     16089.57
      8339.2   0.07141062     1.716493   0.06504134     16090.23
      8339.4   0.07418231     1.729513   0.06423831     16091.34
      8339.6   0.07728608     1.742371   0.06314703     16092.51
      8339.8   0.08053363      1.75484   0.06106248     16092.96
        8340   0.08397481      1.76701   0.05938854     16093.36
      8340.2     0.087677     1.778363   0.05867976     16094.32
      8340.4   0.09185936     1.789882   0.05800162     16094.95
      8340.6   0.09635955     1.801784      0.05782     16095.26
      8340.8    0.1014999     1.813412   0.05767611     16095.51
        8341      0.10706     1.824619   0.05732259     16096.07
      8341.2     0.113073     1.836023   0.05838216     16096.31
      8341.4    0.1197514     1.847642   0.06126002     16097.37
      8341.6    0.1274805     1.860117   0.06488063     16097.33
      8341.8    0.1361358     1.873627   0.06874047     16097.86
        8342    0.1457854     1.887928   0.07271507     16098.45
      8342.2     0.156314     1.902634   0.07660348     16099.56
      8342.4    0.1678919     1.918289    0.0818278     16100.17
      8342.6    0.1806098      1.93491   0.08767683     16100.88
      8342.8    0.1950644      1.95339    0.0934689      16101.2
        8343    0.2108885     1.972776   0.09838293     16102.24
      8343.2    0.2276188     1.993065      0.10236     16102.86
      8343.4    0.2451162     2.013616    0.1058118     16104.23
      8343.6    0.2636312     2.035278    0.1092876     16103.94
      8343.8     0.282782     2.057425    0.1131873     16105.04
        8344    0.3021439     2.080495    0.1163995     16104.83
      8344.2    0.3217825     2.104166    0.1201622     16105.17
      8344.4    0.3417282     2.128398    0.1233833     16106.15
      8344.6    0.3618699     2.153555    0.1254551      16106.3
      8344.8    0.3824657     2.179201    0.1271475     16107.02
        8345    0.4025916      2.20453    0.1283243     16107.53
      8345.2    0.4226953     2.230115     0.129468     16107.98
      8345.4    0.4430434     2.256215    0.1315476     16109.02
      8345.6    0.4636952     2.282776    0.1338707     16109.17
      8345.8    0.4849802     2.309768    0.1341278     16109.79
        8346    0.5070019     2.337212    0.1332238     16111.93
      8346.2    0.5287998     2.363517    0.1314846     16112.33
      8346.4    0.5507524     2.389355    0.1291704     16113.47
      8346.6    0.5733089     2.414956    0.1280545     16114.85
      8346.8    0.5969036     2.440548    0.1254687     16115.91
        8347    0.6210783      2.46596    0.1210874     16116.74
      8347.2    0.6451267      2.48973    0.1158308     16117.47
      8347.4    0.6693007     2.511826    0.1089698     16116.99
      8347.6    0.6937451     2.533213    0.1025716     16117.99
      8347.8    0.7194132     2.553136   0.09594089     16118.87
        8348    0.7449369     2.571787   0.08680345     16119.51
      8348.2    0.7706041     2.588578   0.07770595     16118.83
      8348.4    0.7958297     2.602656   0.06823699     16119.45
      8348.6    0.8206645     2.615301   0.05951453      16119.2
      8348.8    0.8449922     2.626377   0.05135183     16119.34
        8349    0.8700497      2.63619    0.0437835     16118.96
      8349.2    0.8945808     2.643737   0.03505319     16118.88
      8349.4    0.9190962     2.650328   0.02714447      16118.9
      8349.6    0.9437216     2.654419   0.02061381     16118.74
      8349.8    0.9685141     2.657906   0.01433244     16118.63
        8350    0.9936824     2.660228     0.010343     16117.97
      8350.2     1.019289     2.661794  0.005575691     16118.56
      8350.4     1.045791     2.662693  0.001895466     16118.27
      8350.6     1.073154     2.662366 -0.001777145     16118.41
      8350.8       1.1016     2.661745 -0.005031169      16118.8
        8351      1.13114     2.660372  -0.00783647     16119.23
      8351.2     1.161361     2.658669  -0.01098475     16119.85
      8351.4     1.192242     2.656097  -0.01294909     16120.26
      8351.6      1.22248     2.652957  -0.01488901     16120.83
      8351.8     1.254248     2.650013  -0.01552185     16120.76
        8352     1.287079     2.646757  -0.01541556     16121.01
      8352.2     1.320797     2.643679  -0.01554025     16121.38
      8352.4      1.35231     2.640624  -0.01522892     16120.36
      8352.6     1.383641     2.637581  -0.01374898     16121.02
      8352.8     1.414526     2.634574   -0.0120991     16121.02
        8353     1.445495      2.63268  -0.01012067     16121.18
      8353.2     1.475604     2.630945 -0.006797233     16122.05
      8353.4     1.503651     2.629484 -0.004919828     16122.54
      8353.6      1.52811     2.629136 -0.0009236402      16123.1
      8353.8     1.548675     2.628744  0.003105889     16123.34
        8354     1.565827     2.630206  0.009032477     16123.92
      8354.2     1.578459     2.631969   0.01515759     16123.61
      8354.4     1.585569     2.636362   0.02066324     16124.69
      8354.6     1.586868      2.64087   0.02551088     16125.33
      8354.8     1.583017     2.646737   0.02830065     16125.93
        8355     1.573185     2.652377   0.03240428     16127.08
      8355.2     1.558185     2.659003   0.03530877     16127.89
      8355.4     1.538993     2.666794   0.03844688     16128.71
      8355.6     1.515707     2.674984   0.04025716     16129.33
      8355.8     1.489412     2.683135   0.04241601     16130.17
        8356     1.460867     2.691209   0.04164432     16131.09
      8356.2      1.43033     2.700727   0.04149331     16132.38
      8356.4     1.399377     2.708299   0.04018914     16133.24
      8356.6     1.368269      2.71633   0.03610988      16133.6
      8356.8     1.337642      2.72336   0.03393923     16134.55
        8357     1.306906     2.729615   0.03049845     16135.02
      8357.2     1.277627     2.735451    0.0264193     16136.14
      8357.4     1.250187     2.740728   0.02261314     16137.39
      8357.6     1.225549     2.744495   0.01725738     16138.62
      8357.8     1.202751     2.747705   0.01211915     16139.65
        8358     1.181639     2.749257  0.007806413     16140.86
      8358.2     1.162326     2.750424  0.002751266     16141.73
      8358.4     1.144755      2.75074 -0.0009662735     16141.94
      8358.6     1.129509     2.749906 -0.005526199     16142.57
      8358.8     1.116328     2.748484  -0.01015472     16143.67
        8359     1.104735     2.746003  -0.01388578     16144.31
      8359.2      1.09432     2.742617  -0.01767478     16144.93
      8359.4     1.085253     2.738798  -0.01939743     16145.61
      8359.6     1.077567     2.734344   -0.0205538     16146.49
      8359.8     1.071222     2.730485  -0.02107932     16146.85
        8360     1.065997     2.726174  -0.02053033     16147.72
      8360.2     1.061465     2.721934  -0.02145929     16147.46
      8360.4      1.05765      2.71792  -0.02130735     16148.52
      8360.6     1.054306     2.713317  -0.02083034     16149.42
      8360.8     1.051308     2.709128  -0.02084105     16149.74
        8361     1.049054      2.70527  -0.01912125     16151.28
      8361.2        1.047     2.701247   -0.0193653        16152
      8361.4     1.045114      2.69802   -0.0182063     16152.89
      8361.6     1.043501     2.693636  -0.01727227     16153.98
      8361.8     1.041718     2.690705  -0.01701435     16154.47
        8362     1.040148     2.687429  -0.01556912     16155.88
      8362.2     1.038502     2.684409  -0.01681235      16156.1
      8362.4     1.036937      2.68118  -0.01673048     16156.81
      8362.6     1.035438     2.677255  -0.01802104     16158.01
      8362.8     1.033948     2.674044  -0.01857947     16158.94
        8363     1.032142     2.669992  -0.01855308     16159.62
      8363.2     1.030209     2.666317  -0.02090727      16160.3
      8363.4     1.028368     2.662412  -0.02087066     16161.73
      8363.6     1.026514     2.657319  -0.02188415     16162.46
      8363.8     1.024602     2.653296  -0.02242773     16163.97
        8364     1.022774     2.648809  -0.02260087     16164.89
      8364.2     1.020942      2.64447   -0.0246084     16165.85
      8364.4     1.019298     2.639238  -0.02533264     16167.26
      8364.6     1.017793     2.633609  -0.02627776     16168.33
      8364.8     1.016489     2.628543  -0.02553001     16169.54
        8365     1.015352     2.623448  -0.02378577      16170.5
      8365.2     1.014561     2.618814  -0.02343847     16171.35
      8365.4      1.01395      2.61458  -0.02100315     16172.37
      8365.6     1.013986     2.609792  -0.01971692     16173.63
      8365.8     1.014201     2.606646  -0.01861407     16174.95
        8366     1.014905      2.60304  -0.01549938     16176.01
      8366.2     1.015856     2.599689  -0.01572463     16177.22
      8366.4      1.01733     2.597393  -0.01402185     16178.31
      8366.6      1.01898     2.594066  -0.01246339     16178.93
      8366.8     1.021005     2.591823  -0.01183076     16179.93
        8367     1.023326     2.589718  -0.01002422     16180.27
      8367.2     1.025908     2.587928 -0.008491222     16181.79
      8367.4     1.028743     2.586046 -0.007400298     16182.86
      8367.6     1.031923      2.58503 -0.006732621     16184.67
      8367.8     1.034928     2.583798  -0.00505499     16185.07
        8368     1.038157     2.582542 -0.005964112     16186.55
      8368.2     1.041216     2.582002 -0.005667162      16187.5
      8368.4     1.044276     2.580259 -0.005647762     16188.28
      8368.6     1.047251     2.579264 -0.005466572     16189.99
      8368.8     1.049971     2.578024 -0.004029985     16191.01
        8369     1.052124     2.577629  -0.00316335        16192
      8369.2     1.053833     2.577035 -0.002978762     16192.89
      8369.4     1.055185     2.576734 -0.002715485     16193.99
      8369.6     1.055996     2.575641 -0.001619773     16194.21
      8369.8     1.056179     2.575457 -0.0009498203     16195.75
        8370     1.055807     2.575739 0.0009967291     16196.05
      8370.2     1.054887     2.575974  0.002706887     16196.23
      8370.4     1.053634     2.576438  0.002676778     16197.49
      8370.6     1.051732     2.577622   0.00403644     16198.18
      8370.8     1.049325      2.57788  0.004875114     16199.09
        8371      1.04659     2.579203  0.005291754     16199.28
      8371.2     1.043591     2.580339  0.006767452     16200.54
      8371.4     1.040447     2.581856  0.007478778     16201.85
      8371.6     1.036998     2.583294  0.008658453      16202.9
      8371.8      1.03311     2.585186  0.009721856     16203.36
        8372     1.029118     2.587265   0.01230529     16204.14
      8372.2      1.02489     2.589633   0.01358255     16204.97
      8372.4     1.020545     2.593138   0.01476867     16205.55
      8372.6     1.016266     2.596052   0.01606593     16206.18
      8372.8     1.011879      2.59908   0.01614144     16207.01
        8373     1.007342     2.602486   0.01689543     16207.23
      8373.2     1.002925     2.606052   0.01738589     16208.32
      8373.4    0.9981869     2.609568   0.01897454     16208.55
      8373.6    0.9935096     2.612989   0.01954619     16209.87
      8373.8    0.9887637     2.617666   0.02134757     16210.89
        8374    0.9837822     2.621689   0.02285034      16211.1
      8374.2    0.9786961     2.626646   0.02286914      16211.8
      8374.4     0.973624     2.631269   0.02376861     16212.05
      8374.6    0.9683667     2.635961   0.02395173     16213.22
      8374.8     0.963078     2.640703   0.02443413     16213.73
        8375    0.9575399     2.645808   0.02520006     16213.82
      8375.2    0.9520582     2.650817   0.02548803      16214.4
      8375.4    0.9467355     2.656121    0.0261091     16215.31
      8375.6     0.941157     2.661094   0.02701745     16214.82
      8375.8    0.9357549     2.666695   0.02798518     16216.52
        8376    0.9302255      2.67243   0.02875588     16217.12
      8376.2    0.9244988     2.678509   0.02907174     16217.04
      8376.4    0.9191817     2.684099   0.02949169     16218.19
      8376.6    0.9139605     2.689952   0.02935346     16219.19
      8376.8    0.9087613     2.696024   0.02983649     16219.84
        8377    0.9038374     2.701992   0.03003211     16221.01
      8377.2    0.8988735     2.707968   0.03028955     16222.32
      8377.4    0.8939834     2.713978   0.03040781     16222.83
      8377.6    0.8894355     2.720255    0.0308854     16223.89
      8377.8    0.8850388     2.726318   0.03080377     16224.72
        8378    0.8807191     2.732676   0.03039491     16225.36
      8378.2     0.876724     2.738621   0.03029469     16226.56
      8378.4       0.8729     2.744571    0.0297069     16227.15
      8378.6    0.8691673     2.750554   0.02980992     16227.52
      8378.8    0.8655884     2.756442   0.02941492     16228.06
        8379    0.8620872     2.762469   0.02840499     16229.03
      8379.2    0.8588708     2.768103   0.02768361     16229.56
      8379.4    0.8557506     2.773278   0.02637108     16230.42
      8379.6    0.8528053     2.778589   0.02521655     16231.47
      8379.8    0.8498974     2.783566   0.02465431     16232.26
        8380    0.8469436     2.788277    0.0239551     16232.51
      8380.2    0.8441255     2.793001     0.022642     16233.43
      8380.4    0.8415392     2.797753   0.02088764     16234.58
      8380.6     0.839057     2.801679   0.02054037     16235.41
      8380.8     0.836673     2.804987   0.01830188     16236.02
        8381    0.8343133     2.809434   0.01717105     16237.05
      8381.2    0.8320353     2.812394   0.01544132      16237.9
      8381.4    0.8297549     2.815416   0.01295668     16238.48
      8381.6    0.8278308      2.81734   0.01170927     16239.44
      8381.8    0.8257997     2.819799  0.008184911     16239.77
        8382    0.8239026     2.821762  0.007552206     16241.16
      8382.2     0.821902     2.821964  0.004971095     16241.29
      8382.4    0.8200457     2.823382   0.00279062     16242.22
      8382.6    0.8182991     2.823776 0.0006644812     16242.88
      8382.8    0.8166732     2.823994 -0.001919567     16243.46
        8383    0.8151787     2.822496 -0.003936493     16244.75
      8383.2     0.813818     2.821846 -0.006199426     16245.68
      8383.4    0.8124997     2.820627  -0.00670053     16246.39
      8383.6    0.8115587     2.819034 -0.008798428     16247.69
      8383.8     0.810554     2.817135 -0.009983229     16248.37
        8384    0.8096342     2.814807  -0.01177557     16249.28
      8384.2    0.8088304      2.81264  -0.01313547      16250.5
      8384.4    0.8081157     2.809614  -0.01510864      16250.5
      8384.6    0.8074566     2.806627  -0.01612463     16250.88
      8384.8        0.807      2.80272  -0.01740315     16250.85
        8385    0.8067906      2.79974  -0.01826213     16252.24
      8385.2    0.8066581     2.795691  -0.01913835     16252.31
      8385.4    0.8067415     2.792017   -0.0208535     16252.86
      8385.6    0.8069496      2.78741  -0.02180228     16253.88
      8385.8    0.8072933     2.783057  -0.02401619     16254.57
        8386    0.8078221      2.77825  -0.02464262     16255.38
      8386.2    0.8083982     2.772804   -0.0260398     16256.24
      8386.4    0.8092903     2.767695   -0.0277722     16257.08
      8386.6    0.8100907     2.762226   -0.0279102     16257.41
      8386.8    0.8111314     2.756032  -0.02911919     16257.94
        8387    0.8123151     2.750476  -0.02931705     16258.61
      8387.2    0.8135487       2.7444  -0.02985155     16259.41
      8387.4    0.8148944     2.738772  -0.03051239     16260.52
      8387.6    0.8164022     2.732151  -0.03167677     16261.58
      8387.8    0.8177913     2.726066  -0.03165122     16261.98
        8388    0.8194128     2.719059  -0.03117179     16262.98
      8388.2     0.821009     2.713451  -0.03137885      16263.8
      8388.4    0.8226754     2.707213  -0.03016125     16264.54
      8388.6    0.8244192     2.700963   -0.0305941     16265.13
      8388.8    0.8262887      2.69493  -0.02984086     16266.17
        8389    0.8281549     2.688976  -0.02899762     16266.89
      8389.2    0.8299941     2.683341  -0.02832473      16267.7
      8389.4    0.8318892     2.677765   -0.0272105     16268.72
      8389.6    0.8337058      2.67227  -0.02625575     16268.97
      8389.8    0.8356982     2.667207  -0.02583482     16269.57
        8390    0.8375871     2.662336  -0.02462107     16269.75
      8390.2    0.8395216     2.657097  -0.02436762     16270.49
      8390.4    0.8413682     2.652573  -0.02400246     16270.35
      8390.6    0.8433887     2.647713  -0.02348713      16271.2
      8390.8     0.845271     2.643134  -0.02354825     16271.32
        8391    0.8472205     2.638308  -0.02309238     16271.32
      8391.2    0.8491932     2.633734  -0.02321927      16271.8
      8391.4    0.8512465     2.629239  -0.02273201     16272.64
      8391.6    0.8534078     2.624559   -0.0222296     16273.49
      8391.8    0.8555414     2.620122  -0.02095798     16273.77
        8392    0.8576123     2.615951  -0.01963595     16274.35
      8392.2     0.859667     2.612473  -0.01840451     16274.66
      8392.4    0.8618208      2.60885  -0.01764289     16275.17
      8392.6    0.8640527     2.605398  -0.01801622     16275.35
      8392.8    0.8664204     2.601836  -0.01748841     16276.71
        8393    0.8688104      2.59806  -0.01670931     16277.47
      8393.2    0.8711709     2.594859  -0.01550504     16278.25
      8393.4    0.8736609     2.592031  -0.01451534     16279.83
      8393.6     0.876224     2.589432  -0.01448371     16280.38
      8393.8    0.8788899     2.586448  -0.01335852     16280.89
        8394    0.8815938     2.583272  -0.01284725     16282.39
      8394.2    0.8840716     2.581344  -0.01133773     16282.56
      8394.4    0.8868254     2.579155 -0.009682199     16283.04
      8394.6    0.8897299     2.577378 -0.009388498     16284.34
      8394.8    0.8926144     2.575526 -0.008694111     16284.92
        8395     0.895743     2.573833 -0.008149847     16285.48
      8395.2     0.898745     2.572199 -0.007105922     16285.66
      8395.4    0.9018599     2.570858 -0.005936574      16286.7
      8395.6    0.9050093     2.569842  -0.00567716     16287.55
      8395.8    0.9082295     2.569084 -0.004444124     16288.55
        8396    0.9112292     2.567658 -0.003937111     16289.27
      8396.2    0.9143992     2.567302 -0.003383607     16290.01
      8396.4    0.9175808     2.566692 -0.001087637     16291.39
      8396.6     0.920748     2.566377 -0.0008010858     16291.74
      8396.8    0.9240639     2.566787 -8.243789e-05     16292.67
        8397    0.9275262     2.566661 -0.0002430259     16293.74
      8397.2    0.9309526     2.566626 -0.0006004741     16294.54
      8397.4     0.934253     2.566183 -0.0002112123     16294.95
      8397.6    0.9375863     2.566307 -0.0001217346      16295.3
      8397.8    0.9410336     2.566493  0.001056025     16296.08
        8398    0.9445459     2.566529 0.0009863127     16295.93
      8398.2    0.9477717     2.567028    0.0010843     16296.66
      8398.4    0.9509628     2.567096 0.0009726717     16297.28
      8398.6    0.9540869      2.56736 -0.0003793647     16297.26
      8398.8    0.9573375     2.567307 -0.001289215     16297.56
        8399    0.9605282     2.566724 -0.002487763     16298.01
      8399.2    0.9636256     2.566065 -0.002790647     16298.06
      8399.4    0.9666071      2.56537 -0.001502587     16299.26
      8399.6     0.969593     2.565074 -0.001419312     16299.77
      8399.8     0.972491     2.565522 -0.001010654     16300.81
        8400    0.9753852     2.564929 -0.002561852      16301.5
        8401    0.9887751     2.561692 -0.003209302     16305.08
        8402     1.001417     2.558234 -0.002901732     16308.42
        8403     1.014616      2.55531 -0.001847664     16311.45
        8404     1.028997     2.553537 -0.0001275821     16315.17
        8405     1.044376     2.554302   0.00222019     16319.43
        8406     1.059696     2.557724  0.004465472     16323.35
        8407     1.073859      2.56419  0.006052748     16327.73
        8408     1.085701     2.571399  0.006898875     16332.75
        8409     1.094664     2.578513  0.006662244     16338.03
        8410     1.100085     2.585319  0.006176269     16341.93
        8411     1.101956     2.590839  0.006031025     16345.31
        8412     1.100836     2.596104  0.006297016     16348.68
        8413     1.097332     2.602637  0.007292498     16353.14
        8414     1.092249     2.610507  0.008817814     16358.49
        8415     1.086569     2.620009   0.01014644     16362.27
        8416      1.08076     2.631375   0.01106116     16366.19
        8417     1.074768     2.643223   0.01126657     16370.82
        8418     1.068493     2.654752   0.01094022     16376.63
        8419     1.061771     2.665076    0.0106896     16380.92
        8420     1.054547     2.675136    0.0105773     16384.94
        8421     1.046773     2.685981   0.01097129     16388.46
        8422     1.039019     2.697061   0.01176865     16391.98
        8423     1.031331     2.708961   0.01259245     16394.73
        8424     1.024213     2.722211   0.01343756     16396.88
        8425     1.017992     2.736351   0.01389908     16399.17
        8426     1.012276     2.750811   0.01405434     16401.13
        8427     1.007873     2.764557   0.01363387     16404.54
        8428     1.004294     2.778428   0.01240565     16407.63
        8429     1.001284     2.790886   0.01038903      16411.2
        8430    0.9983408     2.800434  0.007524679     16414.75
        8431    0.9958842     2.806113  0.004186817     16419.65
        8432    0.9940302     2.808527 0.0005008027     16424.69
        8433    0.9924532     2.807634 -0.003393822     16428.43
        8434    0.9916039     2.802437 -0.007099212     16432.15
        8435    0.9916792     2.792538  -0.01052257     16436.22
        8436     0.992019      2.78013  -0.01306214     16440.14
        8437     0.992222     2.765543  -0.01479786     16441.81
        8438    0.9924156     2.750188  -0.01591919     16445.24
        8439    0.9924492     2.733347  -0.01679452     16450.15
        8440    0.9924013     2.716453  -0.01731019      16455.7
        8441    0.9925883     2.698365  -0.01736569     16459.83
        8442    0.9926911     2.680948  -0.01706569      16463.9
        8443    0.9923148     2.663884  -0.01598269     16467.75
        8444     0.991558      2.64819  -0.01472899     16471.36
        8445    0.9906468     2.634434  -0.01333118     16474.77
        8446    0.9895954     2.622032  -0.01181464     16477.66
        8447    0.9885172     2.610559  -0.01103432     16480.02
        8448    0.9877955     2.600932  -0.01093279     16483.22
        8449    0.9877261     2.590297  -0.01175874     16488.61
        8450    0.9874717     2.578301  -0.01333971     16492.99
        8451     0.986716     2.563524  -0.01478335     16497.52
        8452    0.9859619     2.547573  -0.01569716     16501.86
        8453    0.9855922     2.531164  -0.01574099     16505.76
        8454    0.9855952     2.515512  -0.01513036     16508.94
        8455    0.9860913      2.50056    -0.013886     16512.17
        8456    0.9870699     2.487051  -0.01211712     16515.81
        8457     0.988516      2.47562 -0.009600405     16519.63
        8458    0.9903572     2.467043 -0.006687507     16524.15
        8459    0.9918835     2.462159 -0.003577483     16527.62
        8460    0.9931793     2.460301 -0.0006918541     16531.06
        8461    0.9941978      2.46131  0.001899167     16535.07
        8462    0.9948374     2.464276  0.004473943     16539.51
        8463    0.9947443     2.469755  0.006514116     16542.73
        8464    0.9940626     2.478197  0.008255354     16545.45
        8465    0.9930958     2.487366  0.009746444     16549.54
        8466    0.9916819     2.497297   0.01043249     16552.89
        8467    0.9895692     2.508741   0.01102991     16556.58
        8468    0.9868499     2.519927   0.01147581     16560.69
        8469    0.9832748     2.531486   0.01120968     16563.72
        8470    0.9791178     2.543201   0.01054026     16566.24
        8471    0.9742395      2.55358  0.009526406     16569.34
        8472    0.9686192     2.562088  0.007969963     16572.02
        8473    0.9630111     2.569592  0.006116708     16575.87
        8474    0.9575305     2.575081  0.003996088     16579.93
        8475    0.9526732     2.578047  0.001809526     16583.93
        8476     0.948703     2.578072 -0.0001289229     16587.42
        8477      0.94527      2.57683 -0.001616776     16589.27
        8478    0.9430507     2.574565 -0.002219836     16591.97
        8479    0.9420435     2.571579  -0.00239336      16595.4
        8480    0.9419899     2.569193 -0.001876795     16600.58
        8481    0.9430553     2.567256 -0.0004949322     16606.48
        8482    0.9454168     2.567058  0.001693506     16611.06
        8483    0.9485317       2.5696  0.004545657     16615.99
        8484    0.9523311     2.575967    0.0079713     16619.81
        8485    0.9569698     2.585439   0.01164384     16621.91
        8486    0.9621837     2.598943   0.01478491     16623.36
        8487    0.9678867     2.616175   0.01753407     16627.04
        8488    0.9737806     2.635107   0.01915957     16631.43
        8489     0.979246     2.655575   0.01968708     16633.86
        8490     0.984578     2.675581   0.01910297      16637.2
        8491    0.9899383     2.694923   0.01757348     16643.09
        8492    0.9947596     2.711519   0.01560787     16648.13
        8493    0.9989343     2.725869    0.0130347     16652.21
        8494     1.002741     2.738013   0.01052964     16654.58
        8495     1.006241     2.747062  0.007973462     16657.09
        8496     1.009571     2.753637  0.005689123     16660.85
        8497     1.012242     2.757763   0.00364827     16664.83
        8498     1.014404     2.760769  0.002159987     16666.92
        8499     1.016373     2.761655 0.0008235804     16668.48
        8500     1.018313     2.762277 -0.0007427118     16672.41
        8501     1.020072     2.761057  -0.00218554     16677.32
        8502     1.021809     2.757798 -0.004230918      16682.8
        8503      1.02366     2.752913 -0.006340795     16687.33
        8504      1.02546     2.745354 -0.008458448     16690.89
        8505     1.027176     2.735694  -0.01074863     16694.54
        8506     1.029001     2.723964  -0.01269958     16697.81
        8507     1.030913     2.709919  -0.01477265     16701.01
        8508     1.032767     2.694555  -0.01668437      16704.6
        8509     1.034172     2.676604  -0.01840165     16707.73
        8510     1.035597     2.657227  -0.02004165     16710.94
        8511     1.037653     2.636312  -0.02133665     16716.03
        8512     1.039652     2.614389  -0.02241962     16720.18
        8513     1.042414     2.591257  -0.02334942     16724.96
        8514     1.046868     2.567549  -0.02401564     16726.71
        8515     1.051115     2.542914   -0.0243906     16713.65
        8516     1.053672     2.518326  -0.02426727     16691.78
        8517     1.054823     2.493695  -0.02341566     16682.41
        8518     1.054415     2.470479  -0.02208794     16680.38
        8519     1.053443     2.449252   -0.0200607     16681.36
        8520     1.053101     2.429974  -0.01759707     16683.93
        8521     1.053714     2.413452  -0.01466616     16687.83
        8522     1.053534     2.400091  -0.01134033     16692.11
        8523     1.051658     2.390587 -0.007783716     16696.01
        8524      1.04926     2.384613 -0.004298519     16701.48
        8525     1.046684     2.382317 -0.0009185769     16704.25
        8526     1.045106     2.382897  0.002294716     16707.32
        8527     1.043509     2.386913  0.005229329     16711.52
        8528     1.040633     2.393792  0.007936589     16719.54
        8529     1.036792     2.403234   0.01002488     16725.76
        8530     1.032597     2.414643   0.01149555     16728.73
        8531     1.029182     2.427012   0.01241378     16729.56
        8532     1.026304     2.439774   0.01279116     16735.36
        8533     1.021902     2.452889   0.01289082      16737.4
        8534      1.01668     2.465808   0.01267511     16741.76
        8535        1.011     2.478576   0.01205042     16745.85
        8536     1.006158     2.490474    0.0111464     16749.38
        8537     1.001497     2.501091  0.009992677     16751.56
        8538    0.9963215     2.510394  0.008916658     16750.69
        8539    0.9918974     2.518546  0.007848714     16753.37
        8540    0.9887311     2.526141  0.006699511     16761.59
        8541    0.9865939     2.532486  0.005339115     16765.51
        8542    0.9847998     2.537192  0.003820421     16767.65
        8543    0.9832567     2.539903  0.002326586     16772.33
        8544     0.982651     2.541423 0.0009346613     16778.67
        8545    0.9819095     2.541792 -0.000156327     16782.57
        8546    0.9806096      2.54093 -0.001014498     16784.38
        8547    0.9797537     2.539277 -0.001838507     16787.69
        8548     0.979898     2.537365 -0.002194662     16792.36
        8549    0.9811528     2.534438 -0.002518404     16797.01
        8550    0.9820132     2.532152  -0.00279408     16801.24
        8551    0.9826099     2.529204 -0.002796242     16806.69
        8552    0.9842851     2.526188 -0.002861651     16807.78
        8553    0.9865642     2.523253  -0.00296567     16810.34
        8554    0.9890836     2.520705 -0.003264623      16814.5
        8555    0.9901001     2.517341 -0.003539599     16819.03
        8556    0.9912372      2.51313 -0.004011074     16822.53
        8557     0.992186     2.509095 -0.004323634     16825.92
        8558    0.9935692     2.504661 -0.004442562     16831.79
        8559    0.9955803     2.500047 -0.004296362     16835.22
        8560    0.9965117      2.49536 -0.003813012     16834.41
        8561    0.9965273     2.491909 -0.002945904     16837.14
        8562    0.9968352     2.489409 -0.001734863     16842.99
        8563    0.9968641     2.488263 -0.0003993338     16847.64
        8564    0.9970349      2.48842   0.00123398        16851
        8565    0.9983028     2.490312  0.003068962     16855.49
        8566    0.9992053     2.494345  0.004935639     16861.43
        8567    0.9993307     2.500539  0.006579545     16863.41
        8568    0.9987722     2.508163  0.007972095     16864.96
        8569    0.9985562      2.51663  0.008824636     16868.85
        8570    0.9992435     2.526233  0.009387698     16874.42
        8571     1.000686     2.535837  0.009606193     16880.36
        8572     1.001336     2.545714  0.009114783     16888.96
        8573     1.001684     2.555055  0.008481682     16895.49
        8574     1.002932     2.562692  0.007671957      16897.3
        8575     1.003627     2.569764  0.006779984     16898.94
        8576     1.004566     2.576401  0.006086731     16904.48
        8577     1.006472     2.582175    0.0052166     16907.72
        8578     1.008581     2.587039   0.00427876     16912.82
        8579     1.010305      2.59063  0.003403575     16919.19
        8580     1.012316     2.593516    0.0024329      16922.7
        8581     1.014455     2.595789  0.001467687     16927.15
        8582     1.014187     2.596771 0.0004907605     16932.54
        8583     1.013604     2.596501 -0.0006917601     16935.97
        8584     1.013271     2.595479 -0.001804175     16938.07
        8585     1.012932     2.593022 -0.002884858     16939.12
        8586     1.012696     2.589554 -0.004137735     16940.65
        8587     1.012888     2.584962 -0.005402367     16942.45
        8588      1.01354     2.578929 -0.006647479     16943.01
        8589     1.014024     2.571413 -0.007888202     16947.22
        8590     1.013887     2.562964 -0.008975041     16955.33
        8591     1.014236     2.553409 -0.009833873     16959.88
        8592     1.015025     2.543028  -0.01068354     16959.85
        8593     1.015885     2.532077   -0.0111025     16960.25
        8594     1.017747      2.52023  -0.01150107     16964.29
        8595     1.020128     2.508999  -0.01159324     16968.23
        8596     1.020156     2.497024  -0.01138501     16971.18
        8597     1.018448     2.485704  -0.01135581     16972.81
        8598     1.016917      2.47469  -0.01091656     16974.25
        8599     1.015922     2.463576   -0.0105798      16978.3
        8600     1.014886     2.453358 -0.009979361     16984.74
        8601     1.013542     2.443385 -0.009100101     16988.16
        8602     1.012161     2.434773 -0.008265124     16989.07
        8603     1.010817     2.427175 -0.007304088     16993.04
        8604     1.008403     2.420297 -0.006375468      17000.6
        8605     1.005741     2.414169 -0.005459771     17007.71
        8606     1.003193     2.409271 -0.004531355     17009.86
        8607     1.000511     2.405336 -0.003523646     17015.05
        8608    0.9984128     2.402172 -0.002734307     17018.77
        8609    0.9967038     2.400074 -0.001872546     17022.06
        8610    0.9957884     2.398333 -0.001209637     17025.03
        8611     0.994803     2.397846 -0.0006600067     17029.43
        8612    0.9939664     2.397333 -0.0002652173     17034.04
        8613    0.9936964     2.397434  -0.00016637     17036.54
        8614    0.9940692     2.397273 5.074113e-05     17039.43
        8615    0.9944812     2.397181 -1.038907e-05     17043.23
        8616    0.9941469     2.397536 -3.025999e-05     17045.01
        8617    0.9939169     2.397393 -0.0001819061      17046.8
        8618    0.9937661     2.397152 -0.0002616505     17047.77
        8619    0.9942824     2.396453 -0.000258055     17049.05
        8620    0.9950148      2.39649 -0.000262821     17048.93
        8621    0.9955453      2.39636 -0.0003339685     17044.44
        8622    0.9961774       2.3961 -0.000285602     17027.87
        8623    0.9979832     2.395117 -0.0003301685     16931.31
        8624    0.9962051     2.395347 -0.0003389345     16824.74
        8625    0.9971432      2.39504 -0.0001674609     16810.65
        8626    0.9959262     2.394744 -0.0002953136     16912.44
        8627    0.9965889     2.394447 -0.0001282904     17036.95
        8628     0.997379     2.394166 0.0001300121     17081.06
        8629    0.9980524     2.394526 0.0003239096     17091.89
        8630    0.9978545     2.395265 0.0006290752     17097.41
        8631     0.998025     2.395743 0.0008402871     17104.47
        8632    0.9982075     2.396682  0.001059903     17110.14
        8633    0.9979966     2.397888  0.001462708     17112.37
        8634    0.9978199     2.399504  0.001691058     17113.67
        8635     0.997751     2.401594  0.001863924      17117.4
        8636      0.99814     2.403447  0.002071581     17123.12
        8637    0.9986794     2.405343  0.002109855     17128.34
        8638    0.9991245      2.40779  0.002171861     17130.13
        8639    0.9991034     2.410033  0.002299481     17132.95
        8640    0.9989303     2.412134  0.002030764     17136.02
        8641    0.9991058     2.414541  0.001972302     17137.75
        8642    0.9992108     2.415914  0.001914265     17139.29
        8643    0.9994569     2.417922  0.001570605     17142.27
        8644     1.000461     2.419791  0.001607549     17145.38
        8645     1.001189     2.420824  0.001391377     17147.43
        8646     1.001142     2.422344  0.001122317     17152.19
        8647     1.000806     2.423488  0.001163189     17156.69
        8648     1.000922      2.42428  0.001011424     17161.09
        8649     1.001595     2.425476 0.0008827529     17165.99
        8650     1.002102     2.426389   0.00085299     17170.89
        8651     1.002471     2.427019 0.0006489934     17176.69
        8652     1.003006     2.427692 0.0006569135     17181.65
        8653      1.00383     2.428072 0.0007816801     17185.34
        8654      1.00448     2.429017 0.0008437325     17187.48
        8655     1.005562     2.430146  0.000889304     17190.82
        8656     1.006638     2.431067  0.000937874     17196.26
        8657     1.007507      2.43163  0.001003592     17199.56
        8658     1.008364     2.432769  0.001132853      17202.6
        8659      1.00976      2.43416  0.001328379     17205.76
        8660     1.010584     2.435599  0.001429465     17207.31
        8661      1.01083     2.436943  0.001463924     17210.64
        8662      1.01095     2.438486  0.001519751     17214.14
        8663     1.011639     2.440016  0.001551575     17218.37
        8664     1.012603     2.441678  0.001532341     17221.69
        8665     1.013697     2.443149  0.001477676     17223.01
        8666     1.014095     2.444616  0.001283636     17224.51
        8667     1.014571     2.445926  0.001036669     17229.34
        8668     1.015089     2.446812 0.0006234288     17232.63
        8669     1.014922     2.447296 0.0001198083     17236.27
        8670     1.014808      2.44711 -0.0003336577     17240.42
        8671     1.015232     2.446406 -0.0008794118     17244.78
        8672     1.015348     2.445478 -0.001423426      17247.1
        8673     1.014434     2.443778 -0.001866935     17249.53
        8674     1.013172     2.441416 -0.002368526     17253.67
        8675     1.012155     2.438938 -0.002791699     17255.29
        8676     1.011293     2.436004 -0.003180005     17258.22
        8677     1.010309     2.432612  -0.00344742     17261.75
        8678     1.009819     2.428696 -0.003709819     17266.24
        8679     1.009446     2.425148 -0.003880194     17271.66
        8680     1.008298     2.421164 -0.004029372     17274.27
        8681     1.007007     2.417091 -0.004370487     17278.99
        8682     1.005255     2.412578 -0.004507539     17283.67
        8683     1.003236     2.407666 -0.004553292     17286.98
        8684     1.001462     2.403134 -0.004568811     17288.33
        8685    0.9996558     2.398878 -0.004537745     17289.05
        8686    0.9976084     2.394303 -0.004419132     17290.64
        8687    0.9962621     2.389515 -0.004302568     17293.33
        8688    0.9947674     2.385458 -0.004017443     17296.81
        8689    0.9928182     2.381667  -0.00364935      17299.4
        8690     0.991625     2.378233 -0.003392025     17303.01
        8691    0.9912033     2.374918 -0.002966754     17306.38
        8692    0.9907615     2.371889 -0.002500611     17309.52
        8693    0.9897571       2.3698 -0.002073901     17313.17
        8694    0.9886365     2.368231 -0.001478406     17316.41
        8695    0.9880401     2.366622 -0.001063488     17321.25
        8696    0.9877814     2.365976 -0.0008775159     17325.42
        8697    0.9876473     2.365546 -0.0005370988     17325.16
        8698    0.9869186     2.364721 -0.000414387     17310.48
        8699    0.9863137     2.364474 -0.0004900521     17300.69
        8700    0.9865676     2.364318 -0.000501053      17306.5
        8701    0.9861568     2.363586 -0.000570905      17318.5
        8702    0.9856223     2.362717 -0.0008172416     17331.27
        8703    0.9856089      2.36219 -0.001054575     17340.51
        8704    0.9858822     2.361049 -0.001441551     17344.68
        8705    0.9870478     2.359368 -0.001920422     17345.58
        8706    0.9881569      2.35695 -0.002310008     17334.69
        8707    0.9879407     2.354509 -0.002668448     17327.57
        8708    0.9874629     2.351809 -0.002959725     17333.37
        8709    0.9873609     2.348694 -0.003337507     17342.57
        8710    0.9875769     2.345111  -0.00366019     17355.16
        8711     0.987723     2.341158 -0.003801517     17362.69
        8712    0.9880882     2.337169 -0.003868697     17368.72
        8713    0.9882859     2.333488 -0.003737234     17373.59
        8714    0.9882431     2.329637   -0.0034886     17376.77
        8715    0.9880795      2.32621  -0.00318285     17381.61
        8716    0.9879832     2.323214 -0.002716437     17385.65
        8717    0.9878755     2.320757 -0.002233855        17389
        8718    0.9878541     2.318771 -0.001848319     17393.28
        8719    0.9873039     2.317274 -0.001415437     17398.32
        8720    0.9866429     2.315821 -0.001070879     17402.58
        8721    0.9864612     2.315095 -0.0008529944     17405.69
        8722     0.986664     2.314487 -0.0005947834     17406.06
        8723    0.9866701     2.313862 -0.0004827365     17408.88
        8724    0.9863906     2.313442 -0.0004489045     17412.96
        8725     0.986375     2.313164 -0.0004709775      17416.6
        8726    0.9865715     2.312692 -0.0004512035     17420.22
        8727    0.9865519     2.311978 -0.000451685     17424.59
        8728    0.9868713     2.311637 -0.0004196105     17428.69
        8729    0.9876159     2.311357 -0.0002895974     17430.88
        8730    0.9886431     2.311013  -0.00033478     17432.64
        8731    0.9893124      2.31082 -0.0002766665     17435.12
        8732     0.989822     2.310298 -0.0001219569     17438.29
        8733    0.9905863     2.310251 -8.80745e-05     17444.13
        8734    0.9913775     2.310526 1.044206e-05     17449.87
        8735    0.9922555     2.310468 4.553401e-05     17452.61
        8736    0.9928529      2.31034 -1.615804e-05     17454.61
        8737    0.9934979     2.310433 5.727705e-05     17458.01
        8738    0.9943059     2.310461 0.0001644011     17463.28
        8739    0.9953716     2.310697 0.0002230675     17467.91
        8740    0.9962091     2.310997 0.0003740136     17470.51
        8741    0.9967326     2.311325 0.0003228734     17470.72
        8742    0.9970993     2.311957 0.0003932861     17472.76
        8743    0.9974867     2.311988 0.0004401535     17475.57
        8744    0.9979635      2.31257 0.0003890235     17478.08
        8745    0.9984114     2.313086 0.0005379581     17481.81
        8746    0.9989444     2.313513 0.0004764039     17485.18
        8747    0.9994651      2.31414  0.000433787      17486.1
        8748     1.000202     2.314476   0.00050578     17487.06
        8749     1.001193     2.314821 0.0004448205     17489.16
        8750      1.00211     2.315536  0.000391789     17493.51
        8751     1.003262     2.315919 0.0004988506     17496.83
        8752     1.004102     2.316043 0.0003486219     17498.16
        8753     1.004768     2.316816 0.0004106916     17501.94
        8754     1.004869     2.316931  0.000498598     17507.49
        8755     1.004735     2.317562 0.0003804034     17510.43
        8756     1.004854     2.318037   0.00042156     17513.41
        8757     1.005011     2.318338 0.0003266384     17515.45
        8758     1.005014     2.318617  0.000263002     17516.65
        8759     1.005002     2.318869  0.000182708     17519.63
        8760     1.005147     2.319089 0.0002524736     17524.76
        8761     1.005444     2.319069 0.0002281325     17529.74
        8762     1.005542     2.319627   0.00020566     17535.07
        8763     1.005673     2.319781 0.0002357565        17539
        8764     1.005586     2.319912 0.0001544524     17541.34
        8765     1.005747     2.320012  0.000147517     17544.47
        8766     1.005822     2.320245 0.0001111855     17547.24
        8767     1.005448     2.320371 0.0001316095     17548.74
        8768     1.004947     2.320357 8.958547e-05     17551.83
        8769     1.004457     2.320538 9.483701e-05     17555.76
        8770     1.003924     2.320603 8.358445e-06      17558.2
        8771      1.00328     2.320751 -0.0001211371     17561.07
        8772     1.002593      2.32039 -0.000198324     17564.47
        8773      1.00166     2.320054 -0.0003726676     17567.98
        8774     1.001145      2.31981 -0.0004904775     17571.78
        8775     1.000975      2.31926 -0.0005211305     17575.23
        8776     1.000848     2.318428 -0.0007062876     17577.26
        8777    0.9994843     2.317969 -0.0008385801     17577.84
        8778    0.9982107     2.316984 -0.0009672676     17579.91
        8779    0.9970639     2.315906 -0.001182986     17580.95
        8780    0.9961276     2.314559  -0.00134655      17583.2
        8781    0.9957758     2.313237 -0.001480436     17587.62
        8782    0.9956786     2.311598   -0.0016707     17591.77
        8783    0.9956842     2.309984 -0.001757855     17594.26
        8784    0.9959237     2.307877 -0.001929174     17595.37
        8785    0.9963491     2.306206  -0.00217712     17597.87
        8786    0.9963181     2.303882  -0.00231959     17600.67
        8787    0.9961024     2.301275  -0.00259208     17603.23
        8788     0.995937     2.298598 -0.002641283      17603.4
        8789    0.9959343     2.295837 -0.002591749     17605.74
        8790    0.9959846     2.293316 -0.002657153     17609.18
        8791    0.9962653     2.290908 -0.002550264     17613.56
        8792    0.9958941      2.28797 -0.002501306     17617.03
        8793    0.9954296     2.285636 -0.002487068     17621.62
        8794     0.995073     2.283311 -0.002222131     17623.31
        8795    0.9949025      2.28096 -0.002175609     17625.58
        8796    0.9945347     2.279081 -0.002114052     17628.21
        8797    0.9941951     2.276934 -0.001949022     17629.44
        8798    0.9937112     2.274855 -0.001820768      17631.7
        8799    0.9933772     2.273164  -0.00161361     17633.26
        8800    0.9934683     2.271798 -0.001476109     17635.14
        8801    0.9935949     2.270479 -0.001304941     17638.03
        8802    0.9933756     2.268951 -0.001275253     17640.46
        8803    0.9932799     2.267944 -0.001146694     17643.78
        8804    0.9932367     2.266697 -0.0009996604     17646.96
        8805    0.9935831     2.265893 -0.0009149865     17650.06
        8806    0.9939431     2.264952 -0.0007133739     17652.94
        8807    0.9942453     2.264284 -0.000629197     17655.71
        8808    0.9945629     2.263843 -0.0005268914      17659.3
        8809     0.994831     2.263376 -0.000467031     17662.16
        8810    0.9948753     2.262844 -0.0004881435     17664.74
        8811     0.994514     2.262416 -0.000517456     17667.61
        8812    0.9940503     2.261891 -0.0004687185     17670.37
        8813    0.9938813     2.261306 -0.0005769091     17671.42
        8814    0.9936122     2.260969 -0.0006030045      17674.1
        8815     0.993308     2.260108 -0.000668788     17678.17
        8816    0.9928314     2.259479 -0.0007775471     17681.35
        8817    0.9929401     2.258631 -0.0007863715     17685.26
        8818    0.9930858     2.257859 -0.000860321     17687.61
        8819    0.9928855     2.256963 -0.0009774291     17689.89
        8820    0.9930557     2.256038 -0.0009861685     17691.01
        8821    0.9935951     2.254721 -0.001067929     17692.13
        8822    0.9939589     2.253915 -0.001204096     17693.23
        8823    0.9935099     2.252691 -0.001239095     17691.68
        8824    0.9932224     2.251221 -0.001427607      17691.8
        8825    0.9932267     2.249765  -0.00154659     17691.53
        8826    0.9931525     2.248204 -0.001638929     17688.27
        8827    0.9930003     2.246505 -0.001711854     17683.72
        8828    0.9929309     2.244665 -0.001814473     17674.92
        8829    0.9929272     2.242917 -0.002006266     17657.13
        8830    0.9933453     2.240946 -0.001749116     17614.12
        8831    0.9960146      2.23848 -0.001595662     17467.96
        8832    0.9967086     2.237669 -0.001745148     17176.68
        8833    0.9935025     2.236535 -0.001272056     17239.99
        8834    0.9968049     2.233966 -0.001425727     17303.04
        8835     0.993971     2.233392 -0.001535161     17234.06
        8836    0.9920341     2.231966 -0.001269152     17479.61
        8837    0.9934329     2.230394 -0.001448143     17680.18
        8838    0.9945844     2.228889 -0.001391532     17741.78
        8839      0.99552     2.227599 -0.001250299     17756.48
        8840    0.9962526       2.2264 -0.001183044     17763.03
        8841    0.9967694     2.225393 -0.001157389     17766.31
        8842     0.997494     2.224157 -0.001054127     17768.92
        8843    0.9982854      2.22297  -0.00103535     17771.83
        8844     0.998446     2.222183 -0.0009928765     17774.49
        8845    0.9981801     2.221251 -0.000928988     17776.14
        8846    0.9981128     2.220185 -0.001101839     17778.39
        8847    0.9982008     2.219254 -0.001157798     17781.31
        8848    0.9984501     2.217776 -0.001072673     17785.16
        8849    0.9985048      2.21662 -0.001065617      17788.9
        8850    0.9987321     2.215895  -0.00100413     17792.95
        8851    0.9992084     2.214991 -0.0009620625     17794.35
        8852    0.9995418      2.21376 -0.001116048     17796.68
        8853    0.9995536     2.212772 -0.001051771      17798.4
        8854    0.9998609     2.211431 -0.0008995669     17800.48
        8855     1.000296     2.210784 -0.000861446     17803.81
        8856     1.000415     2.210161 -0.0006864234     17805.68
        8857     1.000497     2.209326 -0.000639534     17807.36
        8858     1.000899     2.208685 -0.0006515155     17809.53
        8859     1.001046     2.208226 -0.0005618124     17812.89
        8860      1.00118     2.207555 -0.0004507024     17817.44
        8861     1.001424     2.207079 -0.0004292425     17822.89
        8862     1.001768     2.206882 -0.0002911079     17828.43
        8863     1.002087     2.206509 -0.0002873245     17832.89
        8864     1.002127     2.206391 -0.000268084     17834.17
        8865     1.002193      2.20593  -0.00025576     17835.67
        8866      1.00208      2.20581 -0.0002333145     17836.64
        8867     1.002313     2.205486 -9.219442e-05     17838.81
        8868     1.002416     2.205458 -6.710801e-05      17840.6
        8869     1.002321     2.205561 0.0001322726     17842.32
        8870     1.002133     2.205541 7.248643e-05     17845.47
        8871     1.001815     2.206015 5.921401e-05     17849.56
        8872     1.001533     2.205748  5.76725e-05     17852.77
        8873      1.00101     2.205798 1.799898e-05     17856.87
        8874     1.000615     2.205772 5.889403e-05      17860.3
        8875     1.000484     2.206087  7.81895e-05     17862.93
        8876     1.000831     2.205983 0.0001463595     17865.62
        8877     1.001091     2.206111  0.000186611      17867.2
        8878      1.00113     2.206357 0.0002740935     17869.36
        8879     1.000775     2.206833 0.0003417115     17871.74
        8880     1.000674     2.207079 0.0003236835     17875.59
        8881     1.000564     2.207477  0.000245923     17878.57
        8882     1.000422     2.207652 0.0002119355     17881.42
        8883     1.000332     2.207817 0.0002417905     17882.86
        8884      1.00033     2.207927  0.000280188     17884.42
        8885    0.9996232     2.208445  0.000320045     17886.59
        8886    0.9984606     2.208773  0.000344146      17890.5
        8887    0.9973677     2.209097 0.0002429854     17894.22
        8888    0.9967434     2.209304  0.000163975      17897.8
        8889    0.9965325     2.209416 5.706694e-05     17901.04
        8890    0.9962557     2.209429 -7.688907e-05     17904.06
        8891    0.9963173     2.209326 -0.0001925861     17905.63
        8892    0.9967526     2.208996 -0.0002455025     17908.52
        8893    0.9969131     2.208646 -0.0003013375     17909.92
        8894    0.9972636     2.208447 -0.0004009411     17912.64
        8895    0.9977466      2.20812 -0.000465033     17916.25
        8896    0.9981567     2.207392 -0.0006005506     17918.93
        8897    0.9980528     2.206786 -0.0007709666     17921.97
        8898    0.9975906     2.206045 -0.0009066241     17924.31
        8899    0.9971158     2.205036 -0.001115038      17927.6
        8900    0.9966639     2.203766 -0.001236782      17929.9
        8901    0.9963095     2.202326 -0.001401626     17932.64
        8902     0.996039     2.201097 -0.001414098     17935.67
        8903    0.9958456      2.19943 -0.001555564     17938.28
        8904    0.9956566      2.19811 -0.001664234     17941.63
        8905    0.9953578     2.196104 -0.001648479     17942.48
        8906     0.995156     2.194441 -0.001729133     17944.15
        8907    0.9952046     2.192836 -0.001774985     17947.91
        8908     0.995376     2.191193 -0.001786998      17950.8
        8909    0.9962827     2.189004 -0.001765649     17953.64
        8910    0.9975418     2.187293 -0.001737636     17956.85
        8911     0.997587     2.185773 -0.001621836     17960.87
        8912    0.9963595     2.184243 -0.001597136     17964.93
        8913    0.9955562     2.182516 -0.001567006     17966.83
        8914    0.9953371     2.180904 -0.001592605     17967.59
        8915    0.9951613     2.179505 -0.001521874     17969.79
        8916    0.9947737     2.177872 -0.001415578     17971.54
        8917    0.9943926     2.176429 -0.001438691     17973.67
        8918    0.9941776     2.175242 -0.001283203     17976.49
        8919    0.9940096     2.173751 -0.001260911     17979.53
        8920    0.9938907     2.172739 -0.001260563     17983.24
        8921    0.9941074     2.171385 -0.001128947     17985.78
        8922    0.9945434     2.170199  -0.00116144     17987.78
        8923    0.9948005     2.169235 -0.001126059     17990.61
        8924    0.9949794     2.168094 -0.001053459     17994.17
        8925    0.9952254     2.166881 -0.001150356     17997.15
        8926    0.9955394     2.165986 -0.001095036     18000.42
        8927    0.9958726     2.164633 -0.001061869     18002.75
        8928    0.9958748     2.163713 -0.0009950065     18002.81
        8929    0.9958023     2.162633 -0.0008705224     18004.49
        8930    0.9957878     2.162006 -0.0008442375     18007.87
        8931    0.9957143     2.161151 -0.000822614     18010.85
        8932    0.9954795     2.160336 -0.000857173     18014.11
        8933    0.9952858     2.159343 -0.0009025215      18016.7
        8934    0.9954544     2.158577 -0.0008581195     18019.94
        8935    0.9955621     2.157541 -0.000791498     18020.73
        8936    0.9958456     2.156904 -0.000754508     18018.21
        8937    0.9964741     2.156177 -0.0006606884     17989.04
        8938    0.9965405     2.155559 -0.0007257626     17938.92
        8939     0.996274     2.154898 -0.000737997     17925.84
        8940    0.9958234     2.154001 -0.0008312731     17947.61
        8941    0.9961508     2.153225 -0.0007989395     17999.27
        8942    0.9964439     2.152234 -0.0007986915     18022.06
        8943    0.9966176     2.151703 -0.000720561     18030.67
        8944    0.9967674     2.150806 -0.000753877     18037.06
        8945    0.9967089     2.150343 -0.000783815     18042.07
        8946    0.9967546     2.149218 -0.0007776465     18047.13
        8947    0.9964757     2.148567 -0.0008805386     18050.15
        8948    0.9963855     2.147696 -0.000926823     18053.72
        8949     0.996443     2.146821 -0.0009686505     18055.92
        8950     0.996624     2.145511 -0.0009904125     18057.81
        8951    0.9968757     2.144693 -0.000940688     18059.37
        8952    0.9972807     2.143734 -0.0007697724     18061.88
        8953    0.9975889     2.143058 -0.0007997535     18064.32
        8954     0.997794     2.142432 -0.000822319     18068.21
        8955    0.9981732     2.141494 -0.0009311486     18071.22
        8956    0.9986221     2.140445 -0.000946454     18072.64
        8957    0.9988036     2.139333 -0.000919034     18073.88
        8958    0.9986952     2.138646 -0.0008986545     18075.59
        8959    0.9985683     2.137818 -0.0008454865     18077.47
        8960    0.9986496      2.13685 -0.0009313571     18079.63
        8961    0.9990019     2.135951 -0.000946635     18082.03
        8962    0.9993414     2.134921 -0.0009309745     18085.12
        8963    0.9992421     2.134031 -0.000908772      18087.7
        8964    0.9992553     2.133126 -0.000950433     18090.42
        8965    0.9995943     2.132316 -0.0009417575     18094.47
        8966    0.9997062     2.131119 -0.000978922     18097.62
        8967    0.9999641     2.130264 -0.001068918     18100.39
        8968     1.000681      2.12921 -0.001029973     18101.66
        8969     1.001852     2.128041 -0.001074761     18103.36
        8970     1.002436     2.126999 -0.001092881     18103.95
        8971     1.002321     2.125965 -0.0009663364     18108.03
        8972     1.002112     2.124839 -0.0009143155     18112.81
        8973      1.00245     2.124175 -0.0008080739     18116.71
        8974     1.002995     2.123342 -0.000782373     18118.83
        8975     1.003306     2.122733 -0.0008668366     18120.05
        8976     1.003548     2.121709 -0.0008410575     18122.26
        8977     1.003537     2.120708 -0.0009279456     18123.95
        8978     1.003061     2.119977 -0.0007991459     18124.96
        8979     1.002213     2.119021 -0.0007420425     18126.33
        8980     1.001481     2.118513 -0.0007964315     18128.78
        8981     1.001417      2.11774 -0.0006619719     18131.09
        8982     1.001352     2.116792 -0.000642999     18131.06
        8983     1.001132     2.116373 -0.0006722365     18131.57
        8984     1.001078     2.115941 -0.0005884479     18134.41
        8985     1.000901     2.115051 -0.000613634     18136.03
        8986     1.000639     2.114438 -0.0006938825     18137.93
        8987     1.000555     2.113918 -0.000632421     18140.78
        8988     1.000583     2.113165 -0.000616933     18142.33
        8989     1.000885     2.112521 -0.000631908     18144.36
        8990     1.000892      2.11197 -0.0005932185     18146.54
        8991     1.000678     2.111391 -0.000601271     18147.19
        8992     1.000328     2.110792  -0.00054808     18148.14
        8993     1.000178     2.110116 -0.000551818      18150.7
        8994     0.999976     2.109778 -0.0005245115     18152.56
        8995    0.9998571     2.109184 -0.0004869915     18155.03
        8996    0.9997567     2.108694 -0.0005773926     18157.85
        8997    0.9996069     2.108168 -0.0004973939     18161.18
        8998    0.9994263     2.107468 -0.0005217805      18163.1
        8999    0.9992258     2.107194 -0.000579571     18164.38
        9000    0.9994004     2.106607 -0.0005454645     18166.48
        9001    0.9995271      2.10585 -0.000603203     18168.83
        9002     0.999772     2.105286 -0.000597953     18171.99
        9003     1.000098     2.104781 -0.0005380245     18174.77
        9004     1.000421     2.104215 -0.0004326779     18177.95
        9005     1.000312     2.103698 -0.000451425     18180.73
        9006    0.9999375     2.103556 -0.0004367475     18183.07
        9007    0.9996781     2.102975 -0.0004809445     18185.83
        9008    0.9996728     2.102468 -0.0005094505     18187.83
        9009    0.9998628     2.101774 -0.0004668185      18190.3
        9010     1.000111     2.101518 -0.0004559655     18191.71
        9011      1.00014     2.101108 -0.0003161629     18193.62
        9012     0.999742     2.100645 -0.0003658486     18194.68
        9013    0.9994262     2.100509 -0.000387812     18196.72
        9014    0.9991354     2.100055 -0.000422206     18199.02
        9015    0.9990382     2.099557 -0.000434741     18201.52
        9016    0.9988803     2.098956 -0.0004834635     18204.69
        9017    0.9983733      2.09877 -0.000439285     18206.06
        9018    0.9981055     2.098121 -0.0004215215     18207.54
        9019    0.9983438       2.0978 -0.0005127296     18211.55
        9020    0.9984902      2.09727 -0.000510167     18214.97
        9021    0.9987879     2.096719 -0.0005594915     18217.75
        9022    0.9990455      2.09608 -0.0005736165     18219.93
        9023    0.9990675     2.095562 -0.000597875     18222.61
        9024    0.9989742     2.094975 -0.0006008355      18225.2
        9025    0.9985776     2.094328 -0.0005899705     18226.35
        9026    0.9982087     2.093677 -0.0006557055     18228.25
        9027    0.9980419     2.093202 -0.000726546     18231.56
        9028    0.9979785     2.092352 -0.000698442      18234.9
        9029    0.9980611     2.091422 -0.000729101     18237.72
        9030    0.9982457     2.090883 -0.0006850625     18240.84
        9031     0.998271     2.090286 -0.0006647575     18242.56
        9032    0.9982298     2.089612 -0.000660159     18244.01
        9033    0.9984001     2.088763 -0.000703374     18244.81
        9034    0.9988682     2.088242 -0.000754628     18246.82
        9035    0.9995428     2.087472 -0.000781749     18250.14
        9036    0.9999031     2.086594 -0.0007582845     18252.94
        9037     1.000079     2.085636 -0.0007903665     18255.75
        9038     0.999828     2.085209 -0.000726454     18257.24
        9039    0.9993446     2.084311 -0.0007124675     18257.21
        9040     0.998919     2.083688 -0.0008032251     18257.49
        9041    0.9987004     2.082786 -0.0008236575     18259.79
        9042    0.9985468     2.081996 -0.0008653005     18262.24
        9043    0.9986578     2.081016 -0.000825827     18263.59
        9044    0.9990689     2.080227 -0.000859641     18266.93
        9045    0.9995846     2.079482 -0.000820036     18270.66
        9046     1.000039     2.078558  -0.00081374     18273.08
        9047     1.000422     2.077736 -0.000820243     18275.85
        9048     1.000575     2.076972 -0.0008378325      18278.9
        9049     1.000469     2.076201 -0.000891061     18280.18
        9050     1.000239     2.075206 -0.000901567     18279.55
        9051     1.000055     2.074172 -0.0009116225      18281.4
        9052    0.9997197     2.073365 -0.0009016315     18284.19
        9053    0.9996511     2.072555 -0.0009488715     18288.01
        9054    0.9996045       2.0716 -0.0008641159     18289.94
        9055     1.000155     2.070376 -0.0008890555     18292.54
        9056     1.000731     2.069909 -0.000923729     18293.64
        9057     1.001107     2.068999 -0.0008570475     18294.39
        9058     1.001229     2.067905 -0.000865084     18294.64
        9059     1.001272     2.066948  -0.00084499     18296.51
        9060     1.000993     2.066449 -0.000807521     18297.96
        9061     1.001064     2.065619 -0.0007734715     18298.98
        9062     1.001272     2.064675 -0.0008866951     18300.15
        9063     1.001328     2.063854 -0.0009050715     18300.94
        9064     1.001536     2.062902 -0.0008679855     18302.42
        9065     1.001741     2.061999 -0.0008526935     18304.25
        9066     1.002304     2.061203 -0.0008304955     18307.15
        9067     1.002634     2.060443 -0.0008078595     18309.34
        9068     1.002749      2.05958 -0.0007803445     18311.13
        9069     1.002673     2.058767 -0.000835736     18313.76
        9070     1.002756     2.058082  -0.00078728      18316.8
        9071     1.003048       2.0571 -0.0007645045     18318.81
        9072     1.003097     2.056431 -0.000803023     18321.31
        9073     1.003178     2.055709 -0.000756296      18323.7
        9074     1.003408     2.054869 -0.000743804     18326.07
        9075     1.003591     2.054075 -0.000815808     18328.14
        9076     1.003359     2.053455 -0.0008123345      18330.1
        9077     1.002996     2.052446 -0.0008537485     18332.16
        9078     1.002521      2.05162 -0.0008777715     18333.26
        9079     1.002109      2.05066 -0.000814325     18334.93
        9080       1.0018     2.049944 -0.0008866466     18336.27
        9081     1.001581     2.049189 -0.0007886929     18336.68
        9082     1.001613     2.048074 -0.000758149     18336.56
        9083     1.001517     2.047505 -0.000758349     18335.75
        9084     1.001424     2.046912 -0.000686122     18333.05
        9085     1.001421     2.046155 -0.0008643611     18316.81
        9086     1.001641     2.045329 -0.000881372     18290.47
        9087     1.002203     2.044048 -0.0007808549     18273.29
        9088     1.002807     2.043386 -0.0008525501     18267.15
        9089     1.003278     2.043032 -0.0007053209     18261.59
        9090     1.003783     2.041919 -0.0008178356     18233.13
        9091     1.003748     2.041227 -0.0008869955     18181.79
        9092     1.004125     2.040115 -0.0006455563     18142.75
        9093     1.004469     2.039484 -0.0007112081     18024.15
        9094      1.00229     2.039337 -0.0008452811     18056.77
        9095     1.002403     2.038382 -0.0007506049     18199.42
        9096     1.004386     2.036734 -0.0008344891     18202.09
        9097     1.003825     2.036481 -0.0007701124     18078.11
        9098     1.002512     2.035999 -0.0006235674     18087.88
        9099      1.00217     2.035301 -0.0007933971     18191.02
        9100      1.00277      2.03424 -0.0008359245     18261.76
        9101     1.002923     2.033308 -0.000853951     18282.06
        9102     1.002783     2.032655 -0.0007614909     18303.97
        9103     1.002686     2.031886  -0.00073813     18323.61
        9104     1.002652     2.031194 -0.000783732     18334.57
        9105     1.003096     2.030355 -0.000802554     18342.58
        9106     1.003679      2.02952 -0.000832977     18354.34
        9107     1.004193     2.028675 -0.0007560749     18370.58
        9108     1.004854     2.027862 -0.000773999     18386.48
        9109     1.005234     2.027331 -0.0007491945     18395.94
        9110     1.005103     2.026424 -0.000761584     18402.06
        9111     1.004549     2.025679  -0.00079459     18406.35
        9112     1.004331     2.024815 -0.0007760675     18408.65
        9113     1.004422     2.024153 -0.0007910365     18411.14
        9114     1.004476      2.02332 -0.000739252     18414.59
        9115     1.004277     2.022514 -0.0008242746     18417.79
        9116      1.00436     2.021858 -0.000870148      18422.9
        9117     1.004048     2.020855  -0.00081198      18426.1
        9118      1.00386     2.019839 -0.0008438025     18427.94
        9119     1.004242     2.019266 -0.0007477124     18430.14
        9120     1.005032     2.018483 -0.000647158     18431.46
        9121     1.006124     2.017865 -0.0007147641     18432.96
        9122      1.00728     2.017251 -0.0006873785     18432.18
        9123     1.008234     2.016407 -0.0007341815     18433.38
        9124     1.008845     2.015734 -0.0007312495     18435.96
        9125     1.008681     2.014928 -0.0006991155      18438.9
        9126     1.008129     2.014326 -0.0007120135     18442.02
        9127     1.008087     2.013611 -0.000720374     18444.24
        9128     1.007791     2.012886 -0.000734913     18446.93
        9129     1.006881     2.012046 -0.000691133     18449.61
        9130     1.005818     2.011386 -0.0006445965     18451.11
        9131     1.005252     2.010846 -0.0006337685     18452.26
        9132     1.005052     2.010307 -0.0005859385     18453.85
        9133     1.005027     2.009511 -0.000631707     18455.22
        9134      1.00515     2.009042 -0.000636453     18457.64
        9135     1.005218      2.00832 -0.0005427519     18460.09
        9136     1.005028     2.007761  -0.00060203     18461.22
        9137     1.004512      2.00734 -0.0005080469     18461.03
        9138     1.003798     2.006634 -0.000502174     18461.79
        9139     1.003207     2.006287 -0.0005873385     18462.51
        9140     1.002951     2.005753 -0.0005236874     18463.47
        9141     1.002928     2.004991 -0.0005666875     18465.76
        9142     1.003021     2.004539 -0.0005620415     18469.21
        9143     1.002939     2.004021 -0.0004886395     18472.43
        9144     1.002662     2.003505 -0.0004893075     18474.47
        9145     1.002407     2.003036 -0.000479492     18477.14
        9146     1.002433     2.002582  -0.00049743      18479.2
        9147     1.002227     2.002103 -0.000546491     18481.04
        9148     1.001925     2.001515 -0.0006004925     18481.92
        9149      1.00165      2.00085 -0.0005382705     18482.62
        9150     1.001385      2.00018 -0.0005140545     18484.09
        9151     1.001186      1.99995 -0.0005204125     18484.28
        9152     1.001293     1.999459 -0.0004169389     18485.43
        9153     1.001536     1.998769 -0.0005313821     18486.59
        9154     1.001493     1.998512 -0.0005964685      18488.7
        9155     1.001027     1.997824 -0.000532532     18490.97
        9156     1.000674     1.997073 -0.0006363141     18491.57
        9157     1.000581     1.996639 -0.0005468724     18493.51
        9158     1.000493     1.995967 -0.000541004     18494.75
        9159     1.000608     1.995637 -0.0005841715     18498.05
        9160     1.000743     1.994909 -0.0005763255     18500.08
        9161     1.000895     1.994302 -0.0006499965     18502.54
        9162     1.001352     1.993662 -0.000601427     18504.97
        9163     1.001638     1.993037 -0.0006027365        18507
        9164      1.00161     1.992503 -0.0005890135     18510.12
        9165     1.001735     1.991891 -0.0006377195     18512.14
        9166      1.00223     1.991306 -0.000663152     18513.28
        9167      1.00257     1.990486 -0.000649068      18514.6
        9168     1.002659      1.98985 -0.0007316501     18517.66
        9169     1.002584     1.989295 -0.000740773     18520.71
        9170      1.00252     1.988379 -0.000747059     18523.79
        9171     1.002698     1.987523 -0.0007417395      18525.6
        9172     1.003191     1.986862 -0.000703234        18526
        9173     1.003719     1.986328 -0.0006100574     18526.13
        9174      1.00376     1.985566 -0.000615134     18526.55
        9175     1.003495     1.985082 -0.000676187     18527.33
        9176      1.00333     1.984402  -0.00064123     18528.65
        9177     1.003197     1.983623 -0.0007287106     18528.83
        9178     1.002819     1.983001 -0.0006916735     18528.81
        9179     1.002469     1.982168 -0.0006552915     18529.44
        9180     1.002226     1.981635 -0.0006897935     18530.54
        9181     1.002079     1.981002 -0.000628533     18531.31
        9182     1.002055     1.980242 -0.000644255     18532.49
        9183     1.002105     1.979653 -0.000682343     18533.62
        9184      1.00204     1.979058 -0.000644182     18534.49
        9185     1.002124     1.978272 -0.000628453     18536.15
        9186     1.002188     1.977665 -0.000683908     18537.71
        9187     1.002041      1.97714 -0.0007222425     18539.45
        9188     1.002018     1.976322 -0.0006683325     18540.66
        9189     1.002334     1.975384 -0.0006450945     18541.69
        9190     1.002442     1.974992 -0.0006184025      18541.5
        9191     1.002599     1.974559 -0.000547987     18542.94
        9192     1.002584     1.973849 -0.0005666565     18545.18
        9193     1.002528     1.973192   -0.0006395     18547.99
        9194     1.002729     1.972725 -0.000665712     18549.91
        9195     1.002983     1.972001 -0.000673449     18549.66
        9196     1.003371     1.971186 -0.0006842555     18550.09
        9197     1.003574     1.970498 -0.0006367405     18551.13
        9198     1.003436     1.969988 -0.0005931315     18552.32
        9199     1.003209     1.969454 -0.0006063615     18553.89
        9200     1.003041     1.968813 -0.0007021711      18556.2
        9201      1.00299     1.968072 -0.000682952     18557.81
        9202     1.003203      1.96718 -0.0006391535     18558.81
        9203     1.003535     1.966722  -0.00063557     18559.16
        9204     1.003724     1.966257 -0.0005666315     18560.56
        9205     1.003773      1.96553 -0.000563194     18562.11
        9206      1.00373     1.964913 -0.0006431395      18563.2
        9207     1.003414      1.96447 -0.000689613     18564.66
        9208     1.003047     1.963684 -0.000714887     18566.39
        9209     1.002821     1.962772 -0.000782601     18568.36
        9210     1.002538     1.962054 -0.0007521955     18570.23
        9211       1.0024     1.961339 -0.000670186     18572.88
        9212     1.002612     1.960675 -0.000720832     18575.94
        9213     1.002721     1.960091 -0.0007113235      18577.1
        9214     1.003043      1.95917   -0.0007055      18577.8
        9215     1.003184     1.958494 -0.000730573     18579.08
        9216     1.003565     1.957853  -0.00067482     18581.46
        9217     1.003478     1.957169 -0.0006946035     18583.15
        9218     1.003059     1.956471 -0.0007275825     18584.15
        9219     1.002517     1.955716 -0.0007391525     18585.26
        9220     1.001855     1.954943 -0.000748253     18585.71
        9221     1.001375     1.954212 -0.0007291605     18585.91
        9222     1.001658     1.953478 -0.000714485     18588.67
        9223     1.002021     1.952799  -0.00075609     18590.51
        9224     1.002171     1.952085 -0.000745824     18591.49
        9225     1.002225     1.951188 -0.000743422     18592.52
        9226     1.002297     1.950495 -0.000798652     18595.74
        9227     1.002161     1.949825 -0.0007353195     18596.72
        9228     1.002028      1.94889 -0.000737032     18598.52
        9229     1.002124     1.948246 -0.000696266     18600.58
        9230     1.002404     1.947547 -0.000644459     18600.65
        9231     1.002722      1.94704 -0.0006991405     18600.76
        9232     1.002723     1.946313 -0.000671714     18601.33
        9233      1.00255      1.94545 -0.000734156     18601.52
        9234     1.002391      1.94486 -0.0007613085      18601.5
        9235     1.002372     1.944104 -0.0007316885     18602.06
        9236     1.002215     1.943267 -0.0007021745     18603.49
        9237     1.002091     1.942523 -0.000727975     18605.56
        9238     1.001878     1.942051 -0.0006825885     18606.02
        9239     1.001567     1.941192 -0.0006800885     18606.43
        9240     1.001352     1.940537 -0.0006968135     18608.03
        9241     1.001056     1.939803 -0.000642412     18609.64
        9242     1.000946     1.939264 -0.0007206411     18610.82
        9243     1.000783     1.938622 -0.0006934595     18611.07
        9244     1.000695     1.937654 -0.0007800441     18610.05
        9245     1.000246     1.937029 -0.0007936175     18609.38
        9246    0.9999962     1.936144 -0.0006628284     18607.57
        9247     1.000029     1.935448 -0.0007383946     18604.39
        9248      1.00008     1.935003 -0.0006798169        18594
        9249     1.000419     1.934075 -0.000594726     18551.91
        9250     1.000766     1.933424 -0.000646647     18407.89
        9251    0.9992645     1.933069 -0.000659826     18392.73
        9252     0.998809     1.932417 -0.000685846     18498.77
        9253    0.9993525     1.931436 -0.0006694095     18552.18
        9254     1.000636     1.930681 -0.000680897     18453.81
        9255    0.9991925     1.930391 -0.0005827274     18407.34
        9256    0.9987736     1.929693 -0.000619875     18493.63
        9257    0.9990922     1.929105 -0.0007433276     18587.23
        9258    0.9995972     1.928201 -0.0007609435     18628.66
        9259    0.9998208     1.927418 -0.0007743365     18639.09
        9260    0.9999171     1.926649 -0.0007227795     18643.63
        9261     1.000003     1.926008 -0.0006801535      18646.5
        9262     1.000262      1.92531 -0.000620495     18648.77
        9263     1.000499     1.924697 -0.0006358015     18650.67
        9264     1.000495     1.924167 -0.0006637655     18651.22
        9265     1.000568     1.923464 -0.000630572     18652.48
        9266     1.000624     1.922655 -0.000654084     18651.79
        9267     1.000789     1.922175 -0.0006698885     18651.81
        9268     1.000749     1.921551 -0.000594736     18651.87
        9269     1.000333     1.920785 -0.0006707576     18653.63
        9270    0.9997258     1.920276 -0.0006688735     18654.62
        9271    0.9995614     1.919492 -0.0006909635     18655.78
        9272     0.999329     1.918875 -0.0006944845     18657.83
        9273    0.9993737     1.918021 -0.0006200825     18660.74
        9274    0.9993969     1.917498 -0.0006182535     18662.05
        9275    0.9995118     1.917011 -0.000559552     18662.32
        9276    0.9999773     1.916402 -0.0006029765      18661.9
        9277     1.000349     1.915783 -0.000642998     18662.76
        9278     1.000406     1.915086 -0.0006305335     18664.77
        9279     1.000014     1.914439 -0.000657546     18666.06
        9280    0.9995608      1.91388 -0.0006633005     18666.19
        9281    0.9995197     1.913153 -0.0006324095     18668.64
        9282    0.9998237     1.912433 -0.0006792165     18670.08
        9283     1.000104      1.91191 -0.0005958709     18669.79
        9284      1.00046     1.911163 -0.000596245     18671.02
        9285     1.000465     1.910769 -0.0006172855     18672.38
        9286     1.000351     1.910048 -0.0005715615     18674.24
        9287     1.000248     1.909441 -0.0006439421      18675.8
        9288     1.000369     1.908877 -0.0005907935     18676.91
        9289     1.000633     1.908193 -0.000582896      18677.8
        9290     1.000778     1.907685 -0.0006186315     18677.67
        9291     1.000644     1.907109 -0.0005568075     18678.71
        9292     1.000494     1.906403 -0.000604461     18679.63
        9293     1.000296     1.905966 -0.000586231     18679.96
        9294     1.000247     1.905267 -0.000552654     18681.78
        9295    0.9999897     1.904764 -0.0005978755     18683.71
        9296    0.9998801     1.904192 -0.000559098     18684.37
        9297    0.9999851     1.903575 -0.0005743075      18685.6
        9298    0.9998158     1.903031 -0.0005627515     18686.63
        9299    0.9996687     1.902467 -0.000535263     18687.92
        9300    0.9996167     1.901941 -0.0005965785     18690.35
        9301    0.9993696     1.901434 -0.000546805     18690.61
        9302    0.9995304     1.900645 -0.0005424685     18692.04
        9303    0.9998327      1.90028 -0.0005647065     18693.13
        9304    0.9998974     1.899771 -0.0005075135     18692.64
        9305    0.9998738     1.899175 -0.0005643315     18692.49
        9306    0.9996262     1.898614 -0.000571748     18693.31
        9307    0.9994253     1.898022 -0.0005967385     18695.02
        9308    0.9991235     1.897484 -0.0006177665      18695.2
        9309    0.9991037     1.896788 -0.000564795     18696.13
        9310    0.9990975     1.896143 -0.000588172     18695.67
        9311    0.9991954     1.895763 -0.0005403235     18696.17
        9312     0.999333     1.895131 -0.0005368835     18696.53
        9313    0.9994977     1.894627 -0.000602512     18698.38
        9314    0.9995599     1.893996 -0.000556348     18700.06
        9315    0.9992719     1.893353 -0.000570409     18699.78
        9316    0.9991037     1.892906 -0.0006183745     18701.42
        9317    0.9989987     1.892345 -0.000567496     18704.07
        9318    0.9989198     1.891522  -0.00055409     18707.19
        9319    0.9986063     1.891083 -0.0005607005     18708.16
        9320    0.9985989      1.89069 -0.0005470015     18707.21
        9321    0.9988614     1.890102 -0.0005892305     18706.54
        9322    0.9990521     1.889334   -0.0006394     18704.77
        9323    0.9994246     1.888726 -0.000631891     18706.07
        9324     0.999626     1.888132 -0.0005886255     18706.78
        9325    0.9997718     1.887575 -0.0005761125     18708.71
        9326    0.9999507      1.88698 -0.000545742      18710.1
        9327     1.000079     1.886422 -0.0005800705     18712.09
        9328    0.9999155     1.885949 -0.0006298155     18712.38
        9329     1.000041     1.885254 -0.0006518665     18714.12
        9330     1.000346     1.884461 -0.0006789745     18715.63
        9331     1.000508     1.883814 -0.0006424475      18716.4
        9332      1.00034     1.883233 -0.0005477884     18716.06
        9333     1.000053     1.882684 -0.0005700365     18714.09
        9334     1.000129     1.882269 -0.000585108     18715.41
        9335     1.000425     1.881534 -0.0005588265      18718.9
        9336     1.000824     1.880893 -0.000615846     18721.13
        9337      1.00115     1.880449 -0.000605376      18723.6
        9338     1.000961     1.879806 -0.0005846755     18724.43
        9339     1.000693     1.879113 -0.0006402605     18723.88
        9340      1.00063     1.878554 -0.0006291575     18722.99
        9341     1.000603     1.877888 -0.0006510975     18723.14
        9342     1.000652     1.877289 -0.000610346     18721.63
        9343     1.000857     1.876508 -0.0005907085     18723.17
        9344     1.000755     1.876113 -0.000559114     18724.25
        9345     1.000679     1.875525 -0.000560573     18724.79
        9346     1.000521     1.875053 -0.0006431945     18725.49
        9347     1.000352     1.874266 -0.0005766289     18727.23
        9348     1.000372      1.87354 -0.0006324425     18728.08
        9349     1.000276     1.873219 -0.0005979305     18726.92
        9350     1.000445     1.872523  -0.00056645     18722.34
        9351     1.000304     1.871874 -0.0006288315     18719.85
        9352    0.9999472     1.871274 -0.0006000045     18721.59
        9353    0.9997646     1.870703 -0.0005879915     18724.86
        9354    0.9996055     1.870123 -0.000644481     18726.17
        9355    0.9997022     1.869522 -0.0006355985     18728.52
        9356    0.9997618     1.868696 -0.0006750535      18732.4
        9357     0.999609     1.868161 -0.0006585115     18736.35
        9358    0.9995385     1.867423 -0.000641758     18737.63
        9359    0.9994799     1.866888 -0.000635406     18737.45
        9360    0.9995147     1.866129 -0.000607844     18735.39
        9361    0.9996182     1.865619 -0.0006088775     18732.79
        9362    0.9994756     1.864992 -0.0005331215     18729.87
        9363    0.9995269     1.864453 -0.0005535325     18731.69
        9364    0.9997563     1.863997   -0.0005906     18732.84
        9365     1.000172     1.863405 -0.0005975615     18733.75
        9366     1.000363     1.862629 -0.0006229975     18735.26
        9367     1.000294     1.862063 -0.000623173     18738.64
        9368    0.9999967     1.861505   -0.0005803     18743.45
        9369    0.9995961     1.860913 -0.0005910735      18744.8
        9370    0.9995636     1.860308 -0.000600396     18745.59
        9371    0.9995155     1.859698 -0.0006247935     18747.55
        9372    0.9994884     1.859103  -0.00060861     18748.78
        9373    0.9995589     1.858413 -0.0005887385     18748.68
        9374    0.9995661     1.857874 -0.0006629835     18748.31
        9375    0.9993078     1.857343 -0.0005826444     18746.98
        9376    0.9995215     1.856451 -0.000624157     18747.73
        9377    0.9995514     1.856083 -0.0006227405     18748.29
        9378     0.999893     1.855377 -0.0005656865     18749.78
        9379     1.000228     1.854852  -0.00062901     18751.85
        9380     1.000887     1.854188 -0.000623575     18752.81
        9381     1.001423     1.853567 -0.0006133115     18752.34
        9382     1.001694     1.852883 -0.000572292     18752.71
        9383     1.002109     1.852399 -0.000582283     18753.98
        9384     1.002726     1.851899 -0.000584644     18755.84
        9385     1.003028     1.851238 -0.000584155     18757.06
        9386     1.003204     1.850544 -0.0006467415     18757.94
        9387     1.003186     1.850062 -0.0005886135     18758.88
        9388      1.00279     1.849312 -0.0005972985     18759.25
        9389     1.002514     1.848883 -0.000664698     18758.55
        9390     1.002743     1.848155 -0.0006226385     18758.44
        9391     1.003055     1.847404 -0.000633823      18757.4
        9392     1.003198     1.846822 -0.000595331     18755.68
        9393     1.003273     1.846348 -0.000575639     18755.39
        9394     1.003349     1.845774 -0.000600994     18756.32
        9395     1.003479     1.845101 -0.0005936305     18757.36
        9396     1.003491     1.844418 -0.0006095425     18757.25
        9397     1.003374     1.843973 -0.000588402     18757.64
        9398      1.00322     1.843335 -0.000605748     18759.45
        9399     1.003144     1.842747 -0.000650392      18760.8
        9400     1.003023     1.841995 -0.0006448365     18760.59
        9401     1.002805     1.841372 -0.000624982     18760.06
        9402     1.002555     1.840756 -0.000591176     18760.43
        9403     1.001995     1.840248 -0.0006036475      18761.4
        9404      1.00121      1.83963 -0.0006244515     18763.07
        9405     1.000403     1.838957 -0.0006261055     18763.44
        9406     1.000119     1.838258 -0.000612224      18765.2
        9407     1.000092     1.837743 -0.0005744395     18765.38
        9408     1.000306     1.837181 -0.000579673     18764.55
        9409     1.000163     1.836659 -0.000611797     18764.98
        9410     1.000252      1.83594 -0.0005957085     18766.71
        9411     1.000536     1.835296 -0.000637747      18767.3
        9412     1.000805     1.834798 -0.000620592     18767.74
        9413     1.000719     1.834109 -0.0006138205     18768.96
        9414     1.000466     1.833457 -0.0006182455        18770
        9415     1.000292     1.832841 -0.000607184     18770.44
        9416     1.000125     1.832325 -0.000612286      18770.2
        9417     1.000145      1.83168 -0.000632566     18769.85
        9418    0.9998705     1.831008 -0.0006634855     18767.68
        9419    0.9996823      1.83031 -0.000613355     18767.29
        9420    0.9995865     1.829671 -0.000645243     18766.79
        9421    0.9996093     1.829226 -0.000659854      18766.1
        9422    0.9996672     1.828427 -0.0005785495      18765.4
        9423    0.9996317     1.827671 -0.000630854     18765.44
        9424    0.9993034     1.827357 -0.0005660939     18764.94
        9425    0.9993796     1.826703 -0.0005460945     18765.44
        9426    0.9994003     1.826163 -0.0006657621     18765.62
        9427    0.9992406     1.825487 -0.0006406945     18766.08
        9428    0.9993311     1.824694 -0.000632518     18765.55
        9429    0.9993327      1.82414 -0.0006426715     18764.48
        9430    0.9992382     1.823633 -0.0006305585     18764.76
        9431    0.9988275     1.822916 -0.0006128265     18765.27
        9432     0.998576     1.822172 -0.0005976295     18766.11
        9433    0.9986121     1.821689 -0.000585433     18767.11
        9434     0.998503     1.821242 -0.0005427765     18766.74
        9435     0.998578     1.820574 -0.0005769965      18766.7
        9436    0.9985927     1.820001 -0.0006199105     18766.68
        9437    0.9984685     1.819381 -0.000610588      18766.5
        9438    0.9986492     1.818762 -0.0005982495     18766.92
        9439    0.9989271     1.818132 -0.000585161     18766.34
        9440      0.99893     1.817608 -0.000628226     18766.49
        9441    0.9986954      1.81704 -0.000627489     18766.99
        9442    0.9987269      1.81625 -0.000642682      18766.8
        9443    0.9985487     1.815622 -0.0006471565     18766.02
        9444    0.9978659     1.815037 -0.000608507     18764.64
        9445    0.9973355     1.814452  -0.00057046     18764.71
        9446    0.9971119     1.813816 -0.0005484885     18764.88
        9447    0.9969406      1.81334 -0.000583346     18765.12
        9448    0.9965613     1.812843 -0.000578626     18765.77
        9449    0.9963302     1.812118 -0.000577179     18765.42
        9450    0.9963162     1.811501 -0.000601905     18764.47
        9451    0.9962259     1.811031 -0.0005670245     18763.76
        9452    0.9962595     1.810436 -0.0005597945     18763.73
        9453    0.9962743      1.80985 -0.000607373     18762.76
        9454       0.9963     1.809262 -0.000630072     18762.83
        9455    0.9965368     1.808602 -0.000658626     18763.05
        9456    0.9968199     1.807915 -0.0006115875     18761.85
        9457    0.9969495     1.807216 -0.000587229     18760.86
        9458    0.9967833     1.806815 -0.0005292165     18760.07
        9459    0.9965563     1.806253 -0.000527868     18759.49
        9460    0.9963412     1.805798 -0.000577391     18759.93
        9461    0.9963435     1.805104 -0.0005257305     18762.04
        9462    0.9962387     1.804506 -0.000561675     18763.76
        9463    0.9962577      1.80415 -0.000542131      18764.6
        9464    0.9962391     1.803552 -0.000559446     18764.87
        9465    0.9961839     1.802936 -0.000590245     18764.73
        9466    0.9963542     1.802268 -0.000575157     18765.91
        9467    0.9964438     1.801789 -0.0005842675     18766.48
        9468    0.9962582     1.801251 -0.000619402     18765.86
        9469      0.99624     1.800599 -0.000613463     18766.02
        9470    0.9960766     1.799791 -0.0005935575     18765.57
        9471    0.9959624     1.799335 -0.000546845     18765.29
        9472    0.9956658     1.798877 -0.000455065     18763.79
        9473    0.9954926     1.798411 -0.0004814905      18762.5
        9474    0.9955317      1.79797 -0.0005143935     18761.12
        9475    0.9957134     1.797409 -0.000555678     18759.64
        9476    0.9957682     1.796819 -0.0006057445     18759.07
        9477    0.9956823     1.796188 -0.0006073865     18758.87
        9478    0.9956631     1.795547   -0.0005889     18759.11
        9479    0.9957959      1.79498 -0.0005648455     18759.22
        9480    0.9959356     1.794464 -0.0005644185     18758.58
        9481    0.9962582     1.793929 -0.000543798     18758.65
        9482    0.9962729      1.79329 -0.0005691555     18756.36
        9483    0.9964258     1.792804 -0.000567933     18753.05
        9484    0.9968249     1.792187 -0.0005811865     18741.79
        9485    0.9973198     1.791657 -0.0005658875     18722.23
        9486    0.9978303     1.790965 -0.000527233     18718.35
        9487    0.9982027     1.790541 -0.0005555935      18724.2
        9488    0.9984831     1.790078 -0.000533132     18733.17
        9489    0.9981994     1.789435 -0.000558429     18740.72
        9490    0.9980066     1.788832 -0.0005572965     18742.61
        9491    0.9978493     1.788307 -0.0005746755     18729.86
        9492    0.9978551     1.787849 -0.000581572     18713.95
        9493    0.9981709     1.787136 -0.0005502845     18715.26
        9494    0.9984359     1.786506 -0.000592028     18722.15
        9495    0.9987322     1.786106 -0.000553146     18733.15
        9496    0.9988255     1.785481  -0.00052165      18740.3
        9497    0.9988536     1.784924 -0.0005889005     18741.86
        9498    0.9985325     1.784419 -0.000555146     18741.01
        9499    0.9979419      1.78375 -0.0005669825     18740.59
        9500     0.997487      1.78326 -0.0004626269     18738.91
