# This file has been produced by extranormal (v 1.0.1 - February 23, 2017)
# O. Roudenko - Synchrotron SOLEIL. Covered by GPL licence.
#Data from HDF File: /nfs/ruche-rock/rock-soleil/com-rock/2022/Projets/20220725_Gilles/op4_cell4_alone/op4_cell4_pos1_close/op4_cell4_pos1_close_0052/op4_cell4_pos1_close_0052_13330.nxs to op4_cell4_pos1_close_0052_13353.nxs
#Time at start=2022-07-28 08:40:45.386
#Time from start (seconds)=64.9877816939
#Sample temperature (C)=nan
# Normalization -------------
# pivot spectrum: LNO_pristine_av1100_00001.txt
# E0=8332.88   Eshift=-0.200001281493
# E0_pivot = 8349.6
# pre-edge params: from E0_pivot-240.0 to E0_pivot-50.0
# pre-edge range: [8109.6, 8299.6]
# post-edge params: from E0_pivot+70.0 to E0_pivot+1155.0
# post-edge range: [8419.6, 9500.0]
# I jump at E0_pivot = 0.798501347143
# shifted energy	normalized	reference	ref.derivative	I0
        8060  0.001671178     1.042287 -0.0005165288     14939.36
        8065  0.000615944     1.039713 -0.0004770777     14959.75
        8070 0.0004999393      1.03752 -0.0004564636     14984.84
        8075 -0.0008092587     1.035232 -0.0004403829     15007.72
        8080 0.0001604784     1.033158 -0.000450601     15029.61
        8085  0.001101408     1.030905 -0.0004559137     15048.38
        8090  0.001827715     1.028508 -0.0004602028     15071.02
        8095  0.000987909     1.026113 -0.0004544776      15094.9
        8100 0.0008972134     1.023954 -0.0004400937      15116.9
        8105 0.0004988591     1.021816 -0.0004242587     15139.97
        8110 0.0001569169     1.019706 -0.0004229902     15158.87
        8115 -0.000405813     1.017628 -0.0004277938     15178.03
        8120  0.000207472     1.015494  -0.00043361     15198.24
        8125 -0.0004233841      1.01326 -0.0004284008     15220.37
        8130 0.0001696456     1.011034 -0.0004192683     15242.09
        8135  0.001857531      1.00906 -0.0004075374     15263.14
        8140 0.0007500886     1.007109 -0.0003998389      15282.4
        8145 -0.0004723655     1.005109 -0.0004038874     15304.39
        8150 -0.001563593     1.003037 -0.0004135581     15322.05
        8155 -0.0009866054     1.000982 -0.0004210256     15344.87
        8160  0.000375137    0.9988378 -0.0004199546     15363.59
        8165  0.001554299    0.9966885 -0.0004354792     15392.16
        8170  0.002977512    0.9946381 -0.0004306958     15410.23
        8175 0.0007952796    0.9922729 -0.0004297739      15431.9
        8180 0.0007265124    0.9902239 -0.0004221407     15452.31
        8185 -0.0004591467     0.988093 -0.0004206125     15472.46
        8190 -0.001240654    0.9861953 -0.0004116037      15494.4
        8195 -0.0004926524    0.9838607 -0.0004217365     15516.68
        8200 -0.0005222869    0.9819918 -0.0004267809     15533.55
        8205 -0.000113963    0.9796583 -0.0004024979     15557.16
        8210 -0.001379659    0.9776597 -0.0004113025      15573.4
        8215 -0.001481213    0.9758107 -0.0004035475     15594.56
        8220 -0.0007864421    0.9737657 -0.0004055885     15617.32
        8225 -0.0008996572    0.9715873 -0.0004151006      15638.5
        8230 -0.0006200682    0.9695479 -0.0004070762     15660.12
        8235  -0.00111702    0.9675087 -0.000383027     15677.18
        8240 -0.0006509416    0.9656242 -0.0003779316     15699.59
        8245  0.001000179    0.9639268 -0.0003695699     15720.26
        8250 0.0003050855    0.9619893 -0.0003738149     15739.55
        8255 -0.0006353276    0.9601173 -0.0003721119     15756.66
        8260 -0.001092071    0.9581479 -0.0003592873     15777.69
        8265 0.0001984042    0.9564846 -0.0003533152     15797.51
        8270  0.001837425    0.9548035 -0.0003385629     15820.46
        8275 -0.0002097679     0.953051 -0.0003380378     15835.58
        8280 0.0001716635    0.9513767 -0.0003293735     15855.21
        8285 0.0005744409    0.9497238 -0.000311855     15867.09
        8290 0.0006652681    0.9482161 -0.0002957178      15879.9
        8295  0.001390194    0.9468139 -0.000265482     15890.23
        8300  0.004097677    0.9457347 -0.0002079139     15820.81
      8300.2  0.004009474    0.9457457 0.0001276982     15810.45
      8300.4  0.003957527    0.9457041 -0.0001526499     15801.46
      8300.6  0.003943926    0.9456064 -0.0001380369      15793.7
      8300.8  0.003951301    0.9456126 -4.731213e-05     15788.21
        8301  0.003902335    0.9456353 1.002344e-05     15783.58
      8301.2   0.00395244    0.9456663 -0.0002328382     15781.24
      8301.4  0.003947919    0.9456144 -0.0003424129     15779.12
      8301.6  0.004035118    0.9454263 -0.000401001      15777.5
      8301.8  0.003941255    0.9453614 -0.0005558375     15775.77
        8302  0.003982645    0.9453455 -0.0005520255     15775.15
      8302.2  0.004010572    0.9451697 -0.0006270879     15774.58
      8302.4  0.004095191    0.9449847 -0.0006913372     15774.11
      8302.6  0.004030496    0.9448597 -0.0006460497     15771.91
      8302.8  0.004132111    0.9447924 -0.0006044357     15769.67
        8303  0.004278296    0.9446529 -0.0003222608     15766.67
      8303.2  0.004376217    0.9445011 -5.949879e-05     15762.15
      8303.4  0.004424958    0.9446019 0.0001295513     15756.74
      8303.6   0.00453053    0.9447448 0.0003398854     15748.96
      8303.8  0.004640524    0.9447565 1.094924e-05      15738.9
        8304  0.004824468     0.944773 -0.0001081006     15725.97
      8304.2  0.005086496    0.9446107 -0.0002009751     15710.13
      8304.4  0.005294836    0.9446583 -0.0002161505     15688.56
      8304.6   0.00562403    0.9445958 -0.0002992643     15660.76
      8304.8  0.006307321    0.9446001 -0.0005849374     15625.87
        8305    0.0069031    0.9443712 -0.0005667761     15579.35
      8305.2  0.007596047    0.9441904 -0.0007383985      15521.4
      8305.4  0.008227303    0.9441423 -0.0005080979     15452.76
      8305.6  0.008761388    0.9440094 -0.0001846987     15376.56
      8305.8  0.008927598    0.9439648 2.322727e-05     15300.11
        8306  0.008873168    0.9440426 0.0003774647     15229.26
      8306.2  0.008503836    0.9441609 0.0007169873      15170.8
      8306.4   0.00782703    0.9443114 0.0006872618     15129.01
      8306.6  0.007080118    0.9445384 0.0005765739     15107.15
      8306.8   0.00637878    0.9445924 0.0004016496     15105.28
        8307  0.005836301    0.9446222 0.0003421634     15123.73
      8307.2   0.00533679    0.9446327 0.0004836009      15155.1
      8307.4  0.004904054    0.9448121 0.0006249133     15195.76
      8307.6  0.004531894    0.9449793 0.0007453114     15246.62
      8307.8  0.004157605    0.9451221 0.0005784367     15302.18
        8308  0.003838307    0.9452289 0.0004472997     15360.85
      8308.2  0.003587988    0.9452748 0.0004019994     15422.37
      8308.4  0.003428514    0.9453371 0.0003106736     15485.87
      8308.6  0.003364407    0.9454437 9.018567e-05      15552.3
      8308.8  0.003371809    0.9454775 -0.0001959152     15618.25
        8309  0.003663456     0.945347 -0.0006121391     15678.14
      8309.2  0.004123243    0.9451804 -0.0008550005     15728.21
      8309.4  0.004696053     0.944954 -0.0009311739     15767.92
      8309.6  0.005338594    0.9447935 -0.0007590489     15794.25
      8309.8  0.005955836     0.944602 -0.000587962     15806.26
        8310  0.006434468    0.9445732 -0.0005165221     15808.08
      8310.2  0.006702644    0.9444836 -6.933704e-05     15802.49
      8310.4  0.006801002    0.9443802 2.312809e-06     15793.87
      8310.6   0.00678288    0.9445466 5.056237e-05     15787.94
      8310.8  0.006707864     0.944575 3.012281e-05     15784.88
        8311  0.006608752    0.9445241 -0.0003120388     15786.32
      8311.2  0.006418134    0.9444043 -0.0005164254     15792.55
      8311.4  0.006553288    0.9442969 -0.0005825862     15799.92
      8311.6  0.006890318    0.9441619 -0.0003860611     15802.73
      8311.8  0.007058068     0.944058 -0.0001602604     15796.18
        8312   0.00710503    0.9440955 0.0001643655     15783.63
      8312.2  0.007101748    0.9441687 0.0006278254     15769.41
      8312.4  0.006991578    0.9442934 0.0006876614     15754.55
      8312.6  0.006850663    0.9445603 0.0005230733        15743
      8312.8  0.006627083    0.9446456 0.0002651345     15733.21
        8313   0.00672275    0.9445872 -0.0001992765     15727.14
      8313.2  0.006961813    0.9445055 -0.0004293644     15717.07
      8313.4  0.007553295    0.9444008 -0.0007302875     15695.68
      8313.6   0.00821024    0.9443021 -0.0007363494      15659.8
      8313.8  0.009189284     0.944003 -0.0006473363     15605.87
        8314   0.00987766    0.9439164 -0.0004651717     15534.22
      8314.2   0.01040984     0.943883 4.561521e-05     15453.92
      8314.4   0.01078518      0.94393 0.0004679776     15370.16
      8314.6   0.01062099    0.9440395 0.0008690141     15292.89
      8314.8   0.01022252    0.9442908  0.001123314     15229.65
        8315   0.00974565    0.9445782  0.001312238     15185.87
      8315.2  0.008771689    0.9448286  0.001346062     15164.82
      8315.4  0.007990188    0.9450893  0.001284337     15168.32
      8315.6  0.007289615    0.9453676  0.001221975     15188.44
      8315.8  0.007068811    0.9456057  0.001148624     15223.72
        8316  0.006525408    0.9458062 0.0009384232     15262.59
      8316.2  0.006373723    0.9460082 0.0006535626     15304.93
      8316.4  0.006232071    0.9461184  0.000672113     15348.17
      8316.6  0.006252245    0.9461285 0.0007560495     15392.21
      8316.8  0.006094136    0.9463439 0.0006770619     15436.46
        8317  0.005965594     0.946613 0.0005798981     15482.11
      8317.2  0.005864117      0.94666 0.0002828991     15527.29
      8317.4   0.00580433    0.9465924 0.0001408241     15572.48
      8317.6  0.005894086    0.9465702 -3.248942e-06      15617.5
      8317.8  0.006054461    0.9467256  0.000161926     15662.28
        8318  0.006251492    0.9466574 0.0003210987     15703.17
      8318.2  0.006465305     0.946722 0.0001251251     15738.39
      8318.4  0.006755386    0.9468271    0.0001412     15769.01
      8318.6  0.007071753    0.9468257  0.000133988     15794.15
      8318.8  0.007442547    0.9467704 0.0002093756     15816.11
        8319  0.007746565    0.9468292 0.0003081637     15834.23
      8319.2  0.007950071    0.9469946 0.0004907504     15849.39
      8319.4  0.008203583    0.9470723 0.0005453876     15861.48
      8319.6  0.008427189     0.947163 0.0005644388     15872.18
      8319.8  0.008659172    0.9472655 0.0007654379     15881.79
        8320  0.008802278    0.9474462 0.0008290628     15890.18
      8320.2  0.009126297    0.9476846 0.0008773126     15898.61
      8320.4  0.009352157    0.9478262 0.0008853127     15905.68
      8320.6  0.009583137    0.9479673 0.0009099757     15912.12
      8320.8  0.009552956    0.9481544  0.001023963     15916.89
        8321  0.009653118    0.9484126  0.001175825      15922.3
      8321.2  0.009678791    0.9486454  0.001210636     15927.12
      8321.4  0.009743459     0.948908  0.001012564     15932.31
      8321.6  0.009531262    0.9491229  0.001212075     15936.34
      8321.8  0.009476534    0.9492227  0.001218088     15941.59
        8322  0.009417361    0.9496151  0.001301376     15946.78
      8322.2  0.009426177    0.9498825  0.001395287     15952.18
      8322.4  0.009422783     0.950164  0.001337513     15957.79
      8322.6  0.009508442    0.9503389   0.00143205     15963.82
      8322.8   0.00948898    0.9506851  0.001494576     15970.54
        8323  0.009370946    0.9510281   0.00161615     15976.99
      8323.2  0.009354565    0.9513597  0.001603012     15984.49
      8323.4  0.009323269    0.9516318  0.001520201     15991.82
      8323.6  0.009483481    0.9519675  0.001629252     16000.16
      8323.8   0.00961722    0.9522443  0.001900063     16007.92
        8324  0.009857042    0.9526631  0.001993589     16016.08
      8324.2  0.009930705    0.9531519  0.002233724     16022.25
      8324.4   0.01013253    0.9535624  0.002143812     16028.05
      8324.6   0.01020865    0.9540312  0.002029438     16032.37
      8324.8   0.01038546    0.9543781  0.002075801     16035.79
        8325   0.01050756    0.9547754  0.002251253     16038.33
      8325.2    0.0105904     0.955223  0.002698976     16040.37
      8325.4   0.01084271    0.9558322  0.002910515     16042.89
      8325.6   0.01091372    0.9565373   0.00324315     16044.06
      8325.8   0.01110112    0.9571038  0.003282776     16045.44
        8326   0.01120618    0.9578175  0.003410664      16046.6
      8326.2   0.01139051    0.9584585  0.003706326     16048.18
      8326.4   0.01144934    0.9592658  0.003888616     16049.03
      8326.6   0.01147494    0.9600689  0.004368014     16049.84
      8326.8   0.01167374    0.9609284  0.004533464     16051.32
        8327   0.01175955    0.9619529  0.004750316     16051.96
      8327.2   0.01192252    0.9628926  0.005245615     16053.25
      8327.4    0.0120005    0.9638691  0.005584391     16053.52
      8327.6   0.01221278    0.9651249  0.006133253     16055.31
      8327.8   0.01243315    0.9664204  0.006632676     16056.48
        8328   0.01266811    0.9677992  0.006804527      16057.5
      8328.2   0.01297198    0.9691753  0.007159239     16058.65
      8328.4   0.01316641    0.9705685   0.00745873     16059.08
      8328.6   0.01332446    0.9721478  0.008205119     16059.57
      8328.8   0.01355704    0.9737662  0.009269495     16061.02
        8329   0.01374404    0.9757394   0.01046366     16061.93
      8329.2   0.01389427    0.9779841    0.0118332     16062.48
      8329.4   0.01415325    0.9805187   0.01303031     16063.61
      8329.6   0.01454866    0.9832328   0.01440566     16065.02
      8329.8   0.01483212    0.9861636   0.01616635     16065.42
        8330   0.01517334    0.9895086   0.01866202     16066.47
      8330.2   0.01557101    0.9934518   0.02179671     16067.07
      8330.4   0.01600372    0.9981624   0.02559882     16067.68
      8330.6   0.01662012     1.003601   0.03036074     16068.89
      8330.8   0.01710945     1.009988   0.03659934     16069.36
        8331   0.01786373      1.01774   0.04432973     16070.74
      8331.2   0.01858693     1.027442   0.05419226      16071.7
      8331.4   0.01939853     1.039065   0.06567449     16072.48
      8331.6   0.02023944     1.053342   0.07804241     16072.93
      8331.8   0.02127559      1.07028   0.09139865     16073.28
        8332   0.02250487     1.089876    0.1047233     16073.75
      8332.2   0.02396314     1.112184    0.1172969     16074.64
      8332.4   0.02560062      1.13712    0.1285186     16074.59
      8332.6   0.02743172     1.164117    0.1379481     16074.58
      8332.8   0.02952226     1.192691    0.1445393     16074.48
        8333   0.03195055     1.222542    0.1483669     16074.88
      8333.2   0.03454879     1.252752    0.1489061     16074.12
      8333.4   0.03735631     1.282811    0.1463562     16073.88
      8333.6   0.04007055     1.311816    0.1430428     16073.11
      8333.8   0.04296547     1.339627    0.1390974     16073.24
        8334   0.04563215     1.367186    0.1344926     16073.12
      8334.2   0.04815081     1.394089    0.1289473     16072.84
      8334.4   0.05011508      1.41941    0.1211937     16072.93
      8334.6   0.05155759     1.442785    0.1118865     16072.69
      8334.8   0.05263379     1.464141    0.1031643     16072.67
        8335   0.05319877     1.483598    0.0947762     16072.69
      8335.2   0.05323535     1.501941   0.08725302     16072.83
      8335.4   0.05305184     1.518606   0.07916426     16073.18
      8335.6   0.05266306     1.533943    0.0708779     16073.86
      8335.8   0.05216735      1.54693   0.06334612     16073.24
        8336   0.05194019     1.558643   0.05683867     16073.84
      8336.2   0.05187368     1.569283    0.0521272     16074.62
      8336.4   0.05195854     1.579414   0.04796175     16075.21
      8336.6   0.05236056     1.588631   0.04482868     16076.34
      8336.8    0.0529158     1.597013   0.04181219     16077.21
        8337   0.05356472     1.605146   0.04055933     16077.97
      8337.2   0.05458331     1.612864   0.04086337     16079.86
      8337.4   0.05564384     1.621079   0.04201408     16080.96
      8337.6   0.05700826     1.629703   0.04431813     16082.07
      8337.8   0.05841913     1.638757    0.0470136     16082.72
        8338   0.06018473     1.648318    0.0504389     16084.39
      8338.2   0.06207014      1.65869   0.05418532     16086.14
      8338.4   0.06419872     1.670055   0.05762646     16087.25
      8338.6   0.06653072     1.682105   0.06040071     16088.67
      8338.8   0.06892789      1.69442   0.06269202     16089.58
        8339   0.07155905      1.70701   0.06404554     16090.66
      8339.2    0.0745242     1.720208   0.06503242     16091.93
      8339.4   0.07767472     1.733342   0.06489579     16092.38
      8339.6   0.08106051     1.746445   0.06327909      16093.6
      8339.8   0.08455867     1.758927   0.06153958     16093.33
        8340   0.08855986     1.770831   0.05972788     16093.92
      8340.2   0.09294486     1.782573   0.05846948     16094.64
      8340.4    0.0978284     1.794228   0.05780444     16094.64
      8340.6    0.1036249     1.805702   0.05694347     16095.16
      8340.8    0.1099112     1.817075    0.0565582     16095.89
        8341    0.1167401     1.828128   0.05714305      16096.9
      8341.2    0.1243606     1.839474   0.05841891     16096.95
      8341.4    0.1332873     1.851417    0.0616001     16097.27
      8341.6    0.1431865      1.86381   0.06491345     16097.32
      8341.8    0.1548314     1.877408   0.06816891     16097.77
        8342    0.1673099     1.891405   0.07229178     16098.71
      8342.2    0.1807989     1.905952   0.07739341     16099.19
      8342.4    0.1953958     1.921644   0.08273683     16099.62
      8342.6    0.2122292     1.939323   0.08859916     16101.18
      8342.8    0.2296797     1.957595   0.09390464     16101.95
        8343    0.2478418     1.976831   0.09794545      16102.5
      8343.2    0.2665568     1.996767     0.102473      16102.7
      8343.4    0.2858935     2.017679    0.1067908      16103.3
      8343.6    0.3055569     2.039573    0.1109827        16104
      8343.8    0.3254075     2.062264    0.1143314      16105.2
        8344    0.3447143     2.085553    0.1177684     16105.07
      8344.2    0.3642353     2.109144    0.1205752     16105.77
      8344.4    0.3837487     2.133788    0.1231936     16105.85
      8344.6     0.403263     2.158724    0.1261847     16106.25
      8344.8    0.4227232     2.184108    0.1269662     16106.58
        8345    0.4422819     2.210092     0.128966     16106.94
      8345.2    0.4615342     2.235361    0.1314404     16107.67
      8345.4    0.4818264     2.261897    0.1329269     16108.51
      8345.6    0.5027211     2.289261    0.1348286      16109.8
      8345.8    0.5241073     2.316434    0.1344739     16111.03
        8346    0.5454349     2.343223    0.1328918     16112.65
      8346.2    0.5669312     2.369476    0.1321518     16113.13
      8346.4    0.5891345     2.395574     0.130837      16114.6
      8346.6    0.6124973     2.422155    0.1291784     16114.94
      8346.8    0.6363645     2.447893    0.1261916     16115.86
        8347    0.6606136     2.472819     0.120599     16116.34
      8347.2    0.6843391     2.496527    0.1150481     16117.15
      8347.4    0.7087053     2.518634    0.1089683     16117.73
      8347.6    0.7332362     2.539932    0.1035431     16118.14
      8347.8    0.7589533     2.559993   0.09665934     16117.92
        8348    0.7851664     2.579362   0.08880666     16118.87
      8348.2    0.8109492     2.595962   0.07851352     16118.92
      8348.4    0.8368295     2.610977   0.06784409     16119.99
      8348.6    0.8624606     2.622804   0.05914085     16119.81
      8348.8    0.8887677     2.633637   0.05002985     16119.98
        8349     0.915585     2.643275   0.04220449     16119.66
      8349.2    0.9426261     2.651001   0.03435238     16120.14
      8349.4    0.9696861     2.656568   0.02697932     16119.94
      8349.6    0.9974812     2.661119   0.01985943      16119.2
      8349.8     1.026324     2.664858   0.01456126     16118.93
        8350     1.055366     2.666888  0.008976244     16118.36
      8350.2     1.085428     2.668217  0.004169977     16118.48
      8350.4     1.116203       2.6683 0.0005482404      16118.3
      8350.6     1.147698     2.668194  -0.00289563      16118.9
      8350.8     1.180021     2.667327 -0.005558841     16119.14
        8351     1.212856       2.6659 -0.008005713      16119.8
      8351.2     1.245281     2.663853 -0.009966986     16120.31
      8351.4      1.27749     2.661789  -0.01170487      16120.3
      8351.6     1.309673     2.659353  -0.01350746      16120.5
      8351.8     1.342516     2.656536  -0.01503319     16121.28
        8352     1.374762     2.653047  -0.01550074     16121.92
      8352.2     1.405157     2.649763  -0.01650147     16121.61
      8352.4     1.433684     2.646953  -0.01564023     16121.54
      8352.6     1.460767     2.643335  -0.01435488      16121.2
      8352.8      1.48668     2.640535  -0.01318486     16122.03
        8353      1.51086     2.638279  -0.01044673     16122.29
      8353.2     1.532926     2.636405 -0.007041222     16122.53
      8353.4     1.550316     2.634978 -0.004673571     16122.66
      8353.6     1.564112     2.634902 -0.000192361     16122.71
      8353.8     1.574165      2.63454    0.0039438     16122.44
        8354     1.579656     2.636251  0.007801876     16122.93
      8354.2     1.580157     2.638133   0.01378748     16123.55
      8354.4     1.575842     2.641143   0.01815521     16124.81
      8354.6     1.566332      2.64557   0.02423601     16125.77
      8354.8     1.552018     2.650775   0.02714445     16126.16
        8355     1.533979     2.657522   0.03165186     16127.18
      8355.2     1.512006     2.662859   0.03476062        16127
      8355.4     1.487172     2.670892   0.03589286     16128.93
      8355.6     1.459991     2.678584   0.03916035     16129.91
      8355.8     1.431368     2.686236   0.03930472     16131.19
        8356     1.401055     2.694187   0.03997594     16131.85
      8356.2     1.370806     2.702335   0.04009467     16132.37
      8356.4     1.340902     2.710564    0.0393537     16133.62
      8356.6     1.311768     2.718312   0.03709028      16133.9
      8356.8     1.283212      2.72567   0.03471531     16135.03
        8357     1.255662     2.732008   0.03019942     16135.56
      8357.2     1.229587     2.738337   0.02528963     16135.45
      8357.4     1.206432     2.742471   0.02181709     16137.08
      8357.6     1.184797     2.745902   0.01598053     16137.64
      8357.8     1.165247     2.749461   0.01209571     16139.04
        8358     1.147177     2.751121  0.008491013     16140.07
      8358.2     1.130927     2.752148  0.002678985     16141.13
      8358.4     1.116236     2.752695 -0.001607392     16142.01
      8358.6     1.104124     2.751604 -0.006265432     16143.06
      8358.8     1.093266     2.749835  -0.01123176     16143.72
        8359     1.083701     2.747136  -0.01449915     16144.44
      8359.2     1.075204     2.743709  -0.01655378     16144.55
      8359.4     1.067991     2.740005  -0.01868625     16145.15
      8359.6     1.062029     2.736592  -0.01945911     16146.37
      8359.8     1.056793     2.732187  -0.02090864     16147.41
        8360     1.052594     2.728142  -0.02190923     16148.23
      8360.2     1.048784     2.723278  -0.02240861     16148.91
      8360.4     1.045362     2.719065  -0.02199243     16149.31
      8360.6      1.04241      2.71426  -0.02054415     16149.94
      8360.8     1.039642     2.710548  -0.02025736     16150.37
        8361     1.036961     2.706843  -0.01783929     16150.93
      8361.2     1.034619     2.702859  -0.01790359     16151.55
      8361.4     1.032211     2.699988  -0.01820108     16152.72
      8361.6     1.029957     2.696225  -0.01724093     16153.78
      8361.8     1.027709     2.692282  -0.01774482      16154.1
        8362     1.025521     2.689066  -0.01655133     16155.55
      8362.2     1.023233     2.685792   -0.0169403     16156.46
      8362.4     1.020981     2.682984  -0.01715313     16157.81
      8362.6     1.018711      2.67873  -0.01730081     16158.41
      8362.8     1.016516     2.675344  -0.01894245     16158.82
        8363       1.0144     2.671952  -0.01905887     16159.94
      8363.2     1.012349      2.66783  -0.02034476     16161.37
      8363.4     1.010188     2.663483  -0.02223366     16162.39
      8363.6     1.008125     2.659068  -0.02190586     16163.53
      8363.8     1.006086     2.654165  -0.02326137     16163.78
        8364     1.004412     2.650305  -0.02373684     16164.93
      8364.2     1.002907     2.644874  -0.02476113     16165.91
      8364.4     1.001447     2.640078  -0.02580492      16166.6
      8364.6     1.000552     2.634356  -0.02533346     16168.46
      8364.8    0.9998851     2.629662  -0.02498756     16169.35
        8365    0.9994211     2.624607  -0.02332457     16169.77
      8365.2    0.9995029     2.620088  -0.02224044      16170.6
      8365.4    0.9999288     2.615696  -0.02061395     16171.94
      8365.6     1.000816     2.611869  -0.01930428     16172.95
      8365.8     1.002033     2.608116  -0.01800206     16174.13
        8366     1.003832     2.604645  -0.01734049     16175.59
      8366.2     1.005738     2.601295  -0.01575855     16176.24
      8366.4     1.008088     2.597997  -0.01358952     16177.53
      8366.6     1.010562     2.595509   -0.0123668     16177.86
      8366.8     1.013434     2.593773   -0.0104198      16179.8
        8367     1.016279     2.591401 -0.009003024     16180.35
      8367.2     1.019333     2.589661 -0.008771726     16182.13
      8367.4     1.022305     2.588306  -0.00703306     16182.66
      8367.6     1.025388     2.586756 -0.006609321     16183.82
      8367.8     1.028491     2.585775 -0.006023746     16185.07
        8368     1.031302     2.584373 -0.005413864     16185.75
      8368.2     1.033988     2.583487 -0.005616857     16186.84
      8368.4     1.036509     2.582425 -0.004808599     16188.02
      8368.6      1.03852     2.581281  -0.00462231     16188.87
      8368.8     1.040217     2.580527 -0.004190456     16189.85
        8369      1.04152      2.57979  -0.00321436     16191.51
      8369.2     1.042401     2.579072 -0.002886033     16192.22
      8369.4     1.042646      2.57871 -0.002151194     16193.06
      8369.6     1.042593     2.578218 -0.001287895      16194.2
      8369.8     1.042026     2.578069 -0.0004384017     16195.76
        8370      1.04088     2.578042  0.001244118      16196.1
      8370.2      1.03929     2.578359  0.002109505     16197.09
      8370.4     1.037282     2.579213   0.00285839     16197.72
      8370.6     1.034713     2.579756  0.003247537     16198.15
      8370.8     1.031751     2.580329  0.003229675     16199.12
        8371     1.028614     2.580957  0.005183684     16199.47
      8371.2     1.025208     2.581797  0.006664552     16200.46
      8371.4     1.021656     2.583903  0.008929299     16201.38
      8371.6     1.017784      2.58566   0.01068324     16202.43
      8371.8     1.013644       2.5881   0.01121985     16203.76
        8372     1.009382     2.590343   0.01196677     16204.34
      8372.2     1.005015     2.592879   0.01323009     16204.75
      8372.4     1.000728     2.595234   0.01410693     16205.65
      8372.6    0.9961657     2.598685   0.01489597     16206.16
      8372.8     0.991721     2.601629    0.0166875     16206.54
        8373    0.9871611     2.604796   0.01726122      16206.9
      8373.2    0.9825404     2.608584   0.01851037     16207.65
      8373.4    0.9779581     2.612493   0.02010891     16208.08
      8373.6    0.9732041     2.616437   0.02010534     16208.77
      8373.8    0.9683389     2.620883   0.02069991     16210.02
        8374    0.9634901     2.624668   0.02199634     16210.26
      8374.2    0.9586627     2.629053   0.02192523     16211.07
      8374.4    0.9537275     2.634034   0.02346002      16211.2
      8374.6    0.9488148     2.638423   0.02470562      16212.4
      8374.8    0.9435307     2.643436   0.02442323     16212.57
        8375    0.9383006     2.648818   0.02557459     16213.24
      8375.2    0.9331073     2.653573   0.02590167     16213.33
      8375.4    0.9280524     2.658883   0.02583083     16213.89
      8375.6    0.9229323     2.664157   0.02734938     16214.59
      8375.8    0.9178459     2.669483   0.02778708     16215.93
        8376    0.9126709     2.675452   0.02892435     16216.37
      8376.2    0.9076892     2.681113   0.02880194     16217.07
      8376.4    0.9028027     2.687297   0.02926685     16217.67
      8376.6    0.8980477     2.692524   0.02957604     16219.58
      8376.8     0.893324     2.698866   0.03000297     16220.43
        8377    0.8887292     2.704773   0.03083612     16221.62
      8377.2    0.8842266     2.711299   0.03057117     16221.83
      8377.4    0.8801006     2.717193   0.03115113     16223.02
      8377.6    0.8761006     2.723323   0.02973918     16223.87
      8377.8    0.8722119     2.729694    0.0299883     16224.71
        8378    0.8686383     2.735091    0.0294399     16225.68
      8378.2    0.8652126     2.741184   0.02881984      16226.8
      8378.4    0.8618214     2.746875   0.02938637     16226.99
      8378.6    0.8586447      2.75275   0.03010764     16227.64
      8378.8    0.8555122       2.7586   0.02913554      16228.1
        8379    0.8525751      2.76527   0.02834688      16228.9
      8379.2    0.8498648     2.770183   0.02748461     16229.36
      8379.4    0.8471437     2.775428   0.02560943     16230.27
      8379.6    0.8445988     2.780587   0.02575898     16231.31
      8379.8    0.8421968     2.785757    0.0252066     16232.26
        8380    0.8396186      2.79079   0.02356621     16232.94
      8380.2    0.8372748     2.795593   0.02304258     16233.63
      8380.4    0.8350908      2.79944   0.02057325     16234.17
      8380.6    0.8331223     2.804191   0.01982063     16235.49
      8380.8    0.8311548     2.807249   0.01792811     16236.17
        8381    0.8292399     2.811449   0.01610434     16237.63
      8381.2    0.8273618     2.813783    0.0147761     16237.65
      8381.4    0.8257841     2.817075   0.01205536     16238.31
      8381.6    0.8243226      2.81907   0.01158998      16239.2
      8381.8    0.8229925     2.821094  0.008828156     16240.04
        8382    0.8217491     2.823055  0.007859268     16240.75
      8382.2    0.8205759     2.824137  0.004882488     16241.28
      8382.4    0.8195898     2.825357  0.002958061     16242.18
      8382.6     0.818662        2.825 0.0007527365     16243.12
      8382.8     0.818015     2.825421 -0.001353697     16244.26
        8383    0.8173875      2.82474 -0.002885696     16245.37
      8383.2    0.8168792     2.824274 -0.006215422     16246.22
      8383.4    0.8164426     2.822691 -0.007623354      16247.2
      8383.6    0.8161919     2.820449  -0.01019733     16247.79
      8383.8    0.8161212     2.818641  -0.01112033     16248.43
        8384    0.8162407     2.816116  -0.01220406     16249.55
      8384.2    0.8164462     2.813795  -0.01366584     16249.99
      8384.4    0.8168035     2.810686  -0.01479393     16250.62
      8384.6     0.817276     2.807708  -0.01576586     16251.74
      8384.8    0.8177683     2.804281   -0.0171734     16252.23
        8385    0.8184181     2.801182  -0.01846122     16253.53
      8385.2    0.8190414     2.796947   -0.0199476     16253.74
      8385.4    0.8197261     2.792939   -0.0218441     16254.04
      8385.6    0.8205864     2.788323  -0.02260329     16254.75
      8385.8    0.8214802     2.783707  -0.02444634     16255.51
        8386    0.8225449     2.778864  -0.02601106     16255.53
      8386.2     0.823724     2.773382  -0.02607706     16256.32
      8386.4     0.824935     2.767514  -0.02726985     16257.39
      8386.6    0.8261016     2.762845    -0.027729     16258.18
      8386.8      0.82735     2.757049  -0.02805835     16259.03
        8387    0.8286737     2.751199  -0.03044813     16259.24
      8387.2    0.8300969     2.745068  -0.03116587     16259.88
      8387.4    0.8315341     2.738487  -0.03082169     16260.35
      8387.6    0.8331631     2.732116  -0.03144463     16262.14
      8387.8    0.8345745     2.726542    -0.030614     16262.05
        8388    0.8360858     2.719912  -0.03066785      16262.9
      8388.2    0.8376857     2.713996  -0.03127535     16263.66
      8388.4     0.839328     2.707582  -0.03084549      16264.3
      8388.6    0.8409624     2.701521  -0.03079501     16265.18
      8388.8    0.8426038     2.695236  -0.02916653     16265.98
        8389    0.8441558      2.68936  -0.02844362     16266.51
      8389.2    0.8458065     2.684248  -0.02711275      16267.6
      8389.4    0.8473926     2.678766  -0.02658455     16268.22
      8389.6    0.8490093     2.673545  -0.02664312     16268.68
      8389.8    0.8507987     2.668092   -0.0257312     16270.12
        8390    0.8524227     2.662934  -0.02581898     16270.18
      8390.2    0.8541651     2.658181  -0.02542202     16269.96
      8390.4    0.8559132      2.65289   -0.0243922     16270.11
      8390.6    0.8575625     2.647754  -0.02371647     16270.77
      8390.8    0.8593453      2.64342  -0.02265244     16271.74
        8391    0.8610194     2.639208   -0.0217451     16272.38
      8391.2    0.8626785     2.634768  -0.02189429     16272.16
      8391.4    0.8646178     2.630358  -0.02152869     16272.89
      8391.6    0.8665025     2.625905  -0.02130861      16273.3
      8391.8    0.8685729     2.621985  -0.02072778     16274.28
        8392    0.8705961     2.617721  -0.01911339     16275.05
      8392.2    0.8726163     2.613776  -0.01921864     16275.83
      8392.4    0.8747147     2.610614  -0.01812637     16276.49
      8392.6    0.8768518      2.60661  -0.01746809     16276.49
      8392.8    0.8792646      2.60322  -0.01762662     16277.46
        8393    0.8816465     2.599802  -0.01658078     16278.11
      8393.2     0.884116     2.596513  -0.01591344     16278.82
      8393.4    0.8868359     2.593346  -0.01554109     16280.02
      8393.6     0.889539     2.590489  -0.01432426      16281.3
      8393.8    0.8924333     2.587369  -0.01346611     16281.61
        8394     0.895241     2.585053  -0.01259186     16282.25
      8394.2    0.8983488     2.582573  -0.01156383     16283.72
      8394.4    0.9011289     2.580416  -0.01073698     16284.07
      8394.6    0.9041454     2.578118 -0.009255157      16284.3
      8394.8    0.9072353     2.576464 -0.008321369     16285.19
        8395    0.9103499     2.575169 -0.007411391     16285.53
      8395.2    0.9136031     2.573759 -0.006019072     16285.95
      8395.4     0.916895     2.572188 -0.005551006     16286.68
      8395.6    0.9201834     2.571648 -0.004511918     16287.24
      8395.8    0.9234441     2.570728 -0.003421324     16287.51
        8396    0.9268858     2.570149  -0.00318843     16288.68
      8396.2    0.9305004     2.569451 -0.002033257     16290.28
      8396.4    0.9339354     2.569098 -0.001174086     16291.42
      8396.6    0.9375033     2.569101 -0.0009031601     16292.42
      8396.8     0.941018      2.56921 -0.0005235882     16293.48
        8397     0.944388     2.568729 -0.0006319257     16293.25
      8397.2    0.9479004     2.568679 -0.0007446327     16294.67
      8397.4    0.9513475     2.568596 4.675681e-06     16295.31
      8397.6    0.9550214     2.568614  0.000110934      16296.5
      8397.8    0.9585811     2.568733 -0.0004393355     16296.59
        8398    0.9621271     2.568767 -0.0001319643     16297.43
      8398.2    0.9654324     2.568244 -0.0004092737     16297.26
      8398.4    0.9687467     2.568509 -0.0002027085     16297.49
      8398.6    0.9719837     2.568405 0.0004199422     16297.75
      8398.8     0.975264     2.568605 -0.0008001403     16298.62
        8399    0.9784392      2.56858 -0.001232189      16298.7
      8399.2    0.9816416     2.567869 -0.001524889     16299.44
      8399.4    0.9846617     2.567419 -0.001813339      16300.1
      8399.6    0.9875466     2.567385  -0.00201956     16300.84
      8399.8    0.9904485      2.56713 -0.002637955     16301.25
        8400     0.993162     2.566631 -0.002744835     16301.87
        8401     1.006652     2.563928 -0.003116093     16305.03
        8402     1.019886     2.560317 -0.002736724     16308.53
        8403     1.033412       2.5569 -0.001776489     16312.31
        8404      1.04732     2.555684 2.919178e-05     16316.44
        8405      1.06153     2.556822  0.002246792     16320.11
        8406     1.075151     2.560434  0.004499038     16324.64
        8407     1.086604     2.565887   0.00599542     16328.95
        8408     1.094573      2.57368  0.006816234     16333.31
        8409     1.099287     2.580803   0.00692593     16338.04
        8410     1.100944     2.587699  0.006375162     16342.89
        8411     1.099643     2.593591  0.006138274     16346.25
        8412     1.096229     2.599181  0.006448287     16349.31
        8413     1.091233     2.605356  0.007356599     16354.25
        8414     1.084943     2.613492  0.008707123     16359.19
        8415     1.078066     2.623017   0.01014003     16363.51
        8416     1.071039      2.63401   0.01096459     16367.47
        8417     1.064126     2.645917   0.01124729     16371.98
        8418     1.057401     2.657351   0.01098277     16377.73
        8419     1.050554     2.668007   0.01064223     16381.96
        8420     1.043477     2.677941    0.0106068     16384.66
        8421     1.036123     2.688485   0.01074361      16388.4
        8422     1.028703     2.699778   0.01151687     16392.73
        8423        1.021     2.710981   0.01246128     16396.07
        8424     1.013902     2.724008   0.01335889     16397.63
        8425     1.008144     2.738331   0.01411187      16399.8
        8426     1.003311     2.753213   0.01420358     16401.88
        8427     0.999019     2.767429   0.01372624     16405.39
        8428    0.9950877     2.780822    0.0123602     16408.59
        8429    0.9917412     2.793236   0.01038857     16412.35
        8430     0.988883     2.802654  0.007455279     16415.75
        8431    0.9864643     2.808983  0.003858759      16420.4
        8432    0.9849254     2.810644 9.456993e-05      16425.2
        8433     0.984386     2.808671 -0.003802472     16429.02
        8434    0.9846129     2.803033 -0.007348775     16432.28
        8435     0.985538     2.793773  -0.01040103     16437.14
        8436    0.9865064     2.781248  -0.01304571      16440.9
        8437    0.9874562     2.767066  -0.01492372     16443.11
        8438    0.9884895      2.75085  -0.01608854     16446.23
        8439    0.9893353     2.734078  -0.01692277     16450.95
        8440    0.9901231     2.716894  -0.01729784     16456.06
        8441     0.990946     2.699375  -0.01731975     16460.83
        8442    0.9911524     2.681658  -0.01683131     16464.32
        8443     0.991018     2.664799  -0.01598776     16468.04
        8444    0.9905631     2.649569  -0.01467463     16472.02
        8445     0.990314     2.635424  -0.01315167     16476.02
        8446    0.9902572      2.62296  -0.01180863      16478.4
        8447    0.9903774     2.612192  -0.01098171     16481.16
        8448    0.9903191     2.602335  -0.01109117     16484.55
        8449    0.9902286     2.591497  -0.01191908     16489.21
        8450    0.9901636     2.578595  -0.01337652        16494
        8451    0.9898973     2.564516  -0.01481126     16498.47
        8452    0.9895322     2.548828  -0.01547858     16502.71
        8453    0.9894891     2.532252  -0.01573554     16506.58
        8454    0.9895498     2.516681   -0.0150636     16509.68
        8455    0.9899793     2.501574  -0.01369469     16512.94
        8456    0.9904196     2.488574   -0.0118596      16517.1
        8457    0.9913546     2.477474 -0.009277853     16521.09
        8458    0.9923993     2.469242 -0.006621655     16525.71
        8459    0.9931937     2.464463 -0.003671964     16529.15
        8460    0.9933539     2.462087 -0.0006902272     16532.97
        8461    0.9933939     2.462786  0.001888919      16536.4
        8462    0.9933332     2.466482  0.004501573     16540.24
        8463    0.9929081     2.472018  0.006536436        16544
        8464    0.9921737     2.480094  0.008253291     16547.11
        8465    0.9906932     2.488932  0.009680662     16550.19
        8466    0.9889855     2.499495   0.01057321     16554.93
        8467    0.9867985     2.510741   0.01121976     16559.32
        8468    0.9834755     2.522387   0.01135873      16562.1
        8469    0.9794585     2.533811   0.01118102     16565.19
        8470    0.9746953      2.54493    0.0104879     16568.04
        8471    0.9696368     2.555465  0.009387425     16570.44
        8472    0.9649945     2.564338  0.007988471     16573.83
        8473     0.960457      2.57136  0.006101565      16577.5
        8474    0.9564807     2.576884  0.004044662     16581.33
        8475    0.9528384     2.579871  0.001989559     16585.16
        8476    0.9497223     2.580517  4.61652e-05     16588.69
        8477    0.9473266     2.579319 -0.001551145     16590.17
        8478    0.9462629     2.577068 -0.002289357     16593.13
        8479    0.9465767     2.573667 -0.002550944     16596.36
        8480     0.948059     2.571359  -0.00202614     16601.88
        8481    0.9506722     2.569115 -0.0005267891     16608.38
        8482    0.9541462     2.568964  0.001576151     16613.26
        8483    0.9586213     2.571559  0.004598797     16617.84
        8484    0.9634477     2.577664  0.008020834      16622.4
        8485    0.9684687      2.58751   0.01165416     16624.44
        8486    0.9735903     2.601047   0.01502615     16625.71
        8487    0.9790005     2.618176   0.01765168     16629.02
        8488    0.9844417     2.637769   0.01920184      16632.9
        8489      0.98965     2.658117   0.01950906     16636.14
        8490    0.9945424     2.677854   0.01879559      16639.4
        8491    0.9991628     2.696212   0.01749305     16645.08
        8492     1.003066     2.712951    0.0156234     16649.99
        8493     1.006686     2.728089   0.01332539     16654.18
        8494     1.010007     2.740348   0.01071433     16657.39
        8495      1.01299     2.749514  0.007899537     16659.84
        8496     1.015659     2.755808  0.005527963     16663.76
        8497     1.017682     2.759687  0.003472903     16666.97
        8498     1.019181      2.76246  0.002046062     16669.01
        8499     1.020427     2.763405 0.0006559091     16671.14
        8500     1.021766     2.763993 -0.0007836221     16674.33
        8501     1.023412     2.762311 -0.002160781     16680.02
        8502     1.025045     2.759325 -0.004085714     16685.55
        8503     1.026425     2.754762 -0.006107624     16689.45
        8504     1.027722      2.74765 -0.008384094     16693.36
        8505     1.028971      2.73788  -0.01086651     16696.64
        8506     1.030641     2.725789  -0.01295096     16700.23
        8507     1.032537     2.711296  -0.01496646     16702.85
        8508     1.034374     2.695846  -0.01685203     16706.92
        8509      1.03623     2.678014  -0.01845372     16710.32
        8510     1.038019     2.658381  -0.02007449     16714.43
        8511     1.039605     2.637481  -0.02134214     16718.91
        8512     1.041417     2.615548  -0.02231348     16723.61
        8513      1.04415     2.592646  -0.02319081     16728.17
        8514     1.048457     2.569127  -0.02395487      16729.2
        8515     1.052746     2.544718  -0.02429421     16716.93
        8516     1.054506     2.519728  -0.02425815     16694.69
        8517     1.055429     2.495469  -0.02357791     16687.03
        8518     1.055698     2.472094  -0.02211501     16686.59
        8519     1.055043     2.450407  -0.02008681     16686.21
        8520     1.054631     2.431268  -0.01760484     16686.09
        8521     1.052836     2.415122  -0.01455618     16688.84
        8522     1.049978     2.401675  -0.01127143     16693.01
        8523     1.047215     2.392182 -0.007785381      16698.3
        8524     1.045447     2.386183 -0.004153328     16704.67
        8525     1.044164      2.38398 -0.0008026993     16708.12
        8526     1.040795     2.385062   0.00239265     16710.13
        8527     1.036014     2.388971  0.005260208     16714.15
        8528     1.032292     2.395753  0.007890243     16722.71
        8529      1.02854     2.405021   0.00998656     16728.61
        8530     1.024333     2.416623   0.01150378     16730.69
        8531     1.020003     2.428917   0.01240609     16732.03
        8532     1.016577     2.441768   0.01283982     16735.97
        8533     1.012557     2.454645   0.01294011     16738.58
        8534     1.006468     2.467982   0.01268983      16741.3
        8535     1.001216     2.480678   0.01205476     16748.77
        8536    0.9967781     2.492528    0.0110545     16752.19
        8537    0.9928797     2.502864   0.01009264     16755.13
        8538    0.9901861       2.5122  0.008865367     16754.56
        8539    0.9868269     2.521048  0.007842653     16755.86
        8540    0.9823922     2.527989  0.006576211     16764.43
        8541    0.9796517     2.534235  0.005168951     16768.91
        8542    0.9783959     2.538505   0.00381541     16770.67
        8543    0.9768154     2.541724  0.002255048     16776.06
        8544    0.9764154     2.543251  0.001073801     16782.01
        8545    0.9778973     2.543255 -0.0001856218     16785.98
        8546    0.9785639       2.5428 -0.001072938     16788.64
        8547    0.9790874     2.540982  -0.00160718     16791.55
        8548    0.9796816     2.538959 -0.002224242     16795.92
        8549    0.9802569     2.536826 -0.002388564     16800.93
        8550    0.9818211     2.533903 -0.002682786     16805.23
        8551    0.9831648     2.531427 -0.002871012     16810.38
        8552    0.9845557     2.528228 -0.002982049     16812.76
        8553    0.9867074     2.525342 -0.003237575     16814.82
        8554    0.9889684     2.521975 -0.003286452     16818.81
        8555    0.9904535     2.518477 -0.003529795      16822.9
        8556    0.9925486     2.515082 -0.003926331     16826.05
        8557    0.9947227     2.511223 -0.004298661     16830.19
        8558    0.9960226     2.506269 -0.004507343     16835.74
        8559    0.9971565     2.501282 -0.004334573     16838.51
        8560    0.9979457     2.497053 -0.003766533     16839.26
        8561    0.9987753     2.493885 -0.002903537     16841.24
        8562    0.9996774     2.491203 -0.001693322     16847.54
        8563     1.001052     2.489668 -0.0003295125     16852.12
        8564     1.002068     2.490279  0.001273132     16855.63
        8565     1.002046     2.492567  0.003167124     16859.33
        8566     1.001842     2.496296  0.004982008     16865.43
        8567     1.001425     2.502337  0.006437472     16867.88
        8568     1.002014     2.510207  0.007907748     16868.75
        8569     1.002136     2.518317   0.00895241     16873.18
        8570     1.002106     2.527927  0.009416392     16878.29
        8571     1.003384     2.538146  0.009554545     16885.68
        8572      1.00474     2.547873  0.009295174        16894
        8573     1.005674     2.556535  0.008463603     16900.12
        8574     1.006822     2.565107  0.007831935     16901.86
        8575     1.008312     2.572001  0.007008397     16904.12
        8576     1.008605     2.579201  0.005957892      16909.2
        8577     1.008644     2.584569  0.005110372     16913.08
        8578     1.009474     2.588939  0.004075148      16918.6
        8579     1.010597     2.592442  0.003127322     16923.71
        8580     1.011544     2.595501  0.002295843     16927.68
        8581     1.012818     2.597078  0.001513959      16932.1
        8582     1.013588     2.598122 0.0003614085     16937.27
        8583     1.013735     2.598498 -0.000480461     16941.12
        8584     1.014437     2.596947 -0.001676189     16942.45
        8585     1.015612     2.595156 -0.002933961     16944.57
        8586     1.015925     2.591418 -0.004192756      16945.7
        8587     1.016151     2.586762 -0.005587486     16946.28
        8588     1.017306     2.580176 -0.006665432     16948.65
        8589     1.018306     2.572806 -0.007953916     16952.24
        8590     1.018804     2.564756 -0.008899909     16960.31
        8591     1.019104     2.554947 -0.009794481     16964.53
        8592      1.01796     2.544576  -0.01067793     16965.21
        8593     1.017364     2.533628  -0.01115815      16965.6
        8594      1.01765     2.522044  -0.01163847     16969.61
        8595     1.016843     2.510314  -0.01175015     16973.85
        8596     1.015651     2.498022  -0.01152034     16975.96
        8597     1.014653     2.486628  -0.01130824     16978.31
        8598     1.013495     2.475963  -0.01077594     16980.54
        8599     1.012394     2.465081  -0.01032057     16984.29
        8600     1.010621     2.454919   -0.0099592     16989.56
        8601     1.008526     2.445345 -0.009239361      16994.3
        8602     1.006526     2.436126 -0.008378175     16995.02
        8603      1.00465     2.428124 -0.007372227     16998.51
        8604     1.002825     2.421406 -0.006338549     17006.05
        8605     1.001285     2.415856 -0.005283567     17013.11
        8606    0.9996396     2.410772 -0.004425755     17017.01
        8607    0.9979054     2.406989 -0.003584028     17020.82
        8608     0.996666     2.403703 -0.002678697     17025.38
        8609    0.9949369      2.40152 -0.001894722      17028.6
        8610    0.9933804     2.400057 -0.001104095      17031.3
        8611    0.9927725      2.39941 -0.0005136591     17035.34
        8612    0.9929893     2.399287 -0.0002214597     17040.39
        8613    0.9933705     2.399466 -5.451258e-05      17042.8
        8614    0.9931756     2.399171 -0.0001116345     17044.19
        8615    0.9929503     2.399192 -0.0001030238     17048.93
        8616    0.9926467      2.39884 -4.973589e-05     17051.12
        8617    0.9929746     2.399054 -0.0002469027     17052.45
        8618    0.9925266     2.398972 -0.0001156648     17054.25
        8619    0.9923385     2.398205 -0.0003185086     17055.55
        8620    0.9926483     2.398377 -0.0003453882     17055.73
        8621    0.9931673      2.39778 -0.0001854486     17051.14
        8622    0.9945237     2.397591 -0.0002772376     17030.97
        8623    0.9959266     2.397463 -0.0003328178     16948.83
        8624    0.9954924     2.397268 -0.0002362012     16815.46
        8625     0.994817     2.396448 -0.0003848756     16841.29
        8626    0.9938778     2.396646 -0.0003685985     16897.95
        8627    0.9952336     2.395923 -0.0001093156     17048.96
        8628    0.9965529     2.395794 -0.0001118459     17088.72
        8629       0.9976     2.396011 0.0002845413     17098.46
        8630    0.9988618     2.396199 0.0005282464     17104.62
        8631    0.9997073     2.397062 0.0008844846     17111.69
        8632     1.000708     2.397907   0.00129611     17117.18
        8633     1.001434     2.399549  0.001531835     17119.72
        8634       1.0014     2.401383  0.001841394     17120.89
        8635     1.001364     2.403189  0.002010883     17124.83
        8636     1.001008     2.405273  0.001876666     17129.71
        8637     1.000822     2.407592  0.001992909     17135.68
        8638     1.001151      2.40889  0.002074956     17138.12
        8639     1.001302     2.411161  0.002109141     17139.89
        8640     1.001353     2.413572  0.002241539     17142.92
        8641      1.00157     2.416029  0.002243526     17145.19
        8642     1.001841     2.417856  0.001959628     17146.35
        8643     1.002369     2.420135  0.001757595     17148.45
        8644     1.003363     2.421411  0.001536443     17152.53
        8645     1.003782     2.423059  0.001262137        17155
        8646     1.003582     2.424002  0.001141776     17159.34
        8647     1.003573     2.425183  0.001035893     17164.31
        8648     1.003964     2.425978 0.0009476142      17169.5
        8649     1.004782     2.427203 0.0007892945     17174.64
        8650     1.005042     2.427792 0.0007917773     17179.33
        8651     1.005211      2.42834 0.0007185476      17184.3
        8652     1.005868     2.429145 0.0008103921     17188.84
        8653     1.006799     2.430077 0.0008577791     17192.83
        8654     1.007553     2.431034 0.0008936009     17195.15
        8655     1.007827     2.431772  0.000853063     17199.56
        8656     1.008325      2.43272 0.0008924333     17204.52
        8657     1.009347     2.433489  0.001076554     17208.11
        8658     1.010321     2.434603  0.001102694      17210.6
        8659     1.010945     2.436078  0.001305578     17213.45
        8660     1.011807      2.43713  0.001417404     17215.84
        8661     1.012725     2.438712  0.001395669     17219.45
        8662     1.012968     2.440273  0.001599173     17222.81
        8663     1.013474      2.44166  0.001588682     17226.81
        8664     1.014189     2.443527  0.001584768     17229.41
        8665     1.014722     2.445066  0.001421313     17229.74
        8666     1.014927     2.446612  0.001155283     17231.92
        8667     1.014685     2.447346 0.0009506535     17235.97
        8668     1.014453     2.448148 0.0005488826     17240.78
        8669     1.014645     2.448869 0.0002087289     17244.46
        8670     1.015348     2.448808 -0.0003063877     17248.93
        8671     1.014553     2.448181 -0.0008583436     17253.27
        8672     1.012529     2.446923  -0.00135391     17255.48
        8673     1.011159     2.445436 -0.001868449     17257.99
        8674     1.010421     2.443392 -0.002286359     17261.88
        8675     1.009857     2.440707 -0.002765456     17264.21
        8676     1.008922     2.437777 -0.003145658     17266.68
        8677     1.007463     2.434374 -0.003455053     17270.77
        8678      1.00544     2.430809 -0.003718894     17274.63
        8679      1.00372     2.426887 -0.004079917     17280.56
        8680     1.002103     2.422902 -0.004214912     17283.54
        8681      1.00039     2.418054 -0.004280051     17286.99
        8682    0.9987376      2.41395 -0.004461215     17291.98
        8683    0.9975175     2.409766 -0.004347591     17295.38
        8684    0.9964398     2.405057 -0.004544495     17297.68
        8685    0.9950483     2.400664  -0.00471513     17298.27
        8686    0.9935017     2.395772 -0.004640316     17300.07
        8687    0.9920845     2.390906 -0.004462836     17302.65
        8688    0.9911497     2.386495 -0.004066627     17305.42
        8689    0.9905463     2.382812 -0.003633005     17308.74
        8690    0.9900327     2.379505 -0.003107584      17312.2
        8691    0.9899844     2.376374 -0.002803826     17315.58
        8692    0.9897253     2.374065 -0.002405743     17318.66
        8693    0.9891265     2.371597 -0.001952372     17322.22
        8694    0.9888984     2.369882 -0.001653634     17326.43
        8695     0.988782     2.368564 -0.001146986      17330.7
        8696    0.9885103     2.367451 -0.0008325743      17334.8
        8697    0.9883344     2.367009 -0.0006316142     17333.67
        8698    0.9884892     2.366552 -0.0004426695     17322.17
        8699    0.9884222     2.366038 -0.000453855     17309.56
        8700    0.9884796      2.36568 -0.0004548382     17315.22
        8701     0.988609     2.365194 -0.0006244453     17326.12
        8702    0.9890505     2.364733 -0.0008411833     17339.84
        8703    0.9893794      2.36354 -0.001121026     17348.48
        8704    0.9897961     2.362315 -0.001512874     17353.99
        8705    0.9897898      2.36071  -0.00176854     17355.29
        8706    0.9897559     2.358681  -0.00213336     17346.52
        8707      0.98971     2.356466 -0.002474042     17337.25
        8708     0.989784     2.353782 -0.002943505     17341.51
        8709    0.9901289     2.350814 -0.003351398     17351.81
        8710    0.9901354     2.346907 -0.003709777     17363.64
        8711    0.9898685      2.34306 -0.003890905     17372.05
        8712    0.9894693     2.338943 -0.003844929     17378.14
        8713    0.9893581      2.33525 -0.003662756     17383.53
        8714    0.9894487     2.331527 -0.003445189     17387.16
        8715    0.9891572     2.328409 -0.003143207     17391.46
        8716    0.9886497     2.325162 -0.002728058     17395.97
        8717    0.9881619     2.322677 -0.002379354     17399.22
        8718    0.9880601     2.320615 -0.001796279     17403.04
        8719      0.98808     2.318892 -0.001420967     17408.67
        8720    0.9878544     2.317977 -0.0009911535     17412.74
        8721    0.9881112     2.316993 -0.000679065     17416.05
        8722    0.9883885      2.31665 -0.0006793174     17417.25
        8723    0.9885169     2.316176 -0.000584219     17419.86
        8724    0.9885415     2.315259 -0.000582033     17423.33
        8725    0.9887793     2.314656 -0.0005833809     17427.24
        8726    0.9890252     2.314322 -0.0005065585     17430.39
        8727    0.9892665     2.313842 -0.0005147429        17435
        8728    0.9897079     2.313233 -0.000426782     17439.04
        8729    0.9903814     2.312597 -0.000419684     17442.01
        8730    0.9908323     2.312615 -0.0003564927     17443.66
        8731    0.9916143     2.312163 -0.000180417      17446.1
        8732     0.992802     2.311807 -0.0001456394     17449.05
        8733     0.994062     2.311876 -8.192787e-05     17455.05
        8734    0.9950209     2.312033 5.825047e-06      17461.1
        8735    0.9957905     2.311836 4.167304e-05     17464.43
        8736    0.9964674     2.311831  8.18096e-05      17466.3
        8737    0.9968314     2.312042 0.0001563711     17468.74
        8738    0.9975145      2.31236 0.0002159925     17474.54
        8739    0.9981475     2.312461 0.0002168804     17478.48
        8740    0.9988106     2.312695 0.0001947976     17482.15
        8741    0.9994433      2.31291 0.0002964873     17483.01
        8742     1.000467     2.313139  0.000497323        17485
        8743     1.001218     2.313647 0.0005200166     17488.54
        8744      1.00168     2.314684 0.0005762078      17489.5
        8745     1.002212      2.31499 0.0004084237     17494.18
        8746     1.002713     2.315444 0.0002436476     17497.09
        8747     1.003254     2.315281 0.0002989565     17498.74
        8748     1.003631     2.315658 0.0003517514      17499.5
        8749     1.004416     2.316186 0.0005629939     17501.56
        8750     1.005251     2.316851  0.000529825     17505.06
        8751     1.005737     2.317533 0.0005132328     17508.52
        8752     1.006015     2.317778  0.000410962     17510.52
        8753     1.006074     2.318239 0.0004494242      17513.8
        8754     1.006491     2.318495 0.0005162873     17519.34
        8755       1.0072     2.319331 0.0004133736      17523.1
        8756     1.007842     2.319843 0.0004308419     17525.37
        8757     1.008499     2.319892 0.0003433274      17528.3
        8758     1.008867     2.320218  0.000249929     17530.62
        8759     1.008939     2.320704 0.0002455975     17532.95
        8760      1.00875     2.320843 0.0002582704     17537.37
        8761     1.008543     2.320875 0.0002110199     17542.91
        8762     1.007751     2.321251 0.0001978437     17547.23
        8763     1.007218     2.321548 0.0002784094      17551.8
        8764     1.006843     2.321634 0.0001844098     17553.92
        8765     1.006186     2.321988 7.332517e-05        17557
        8766     1.005418     2.321989 0.0001675194     17560.22
        8767     1.004846     2.321841  0.000122907     17562.41
        8768     1.004124     2.322304  0.000103786     17564.72
        8769     1.004048      2.32248  8.08754e-05      17569.7
        8770     1.003474     2.322404 -1.851823e-05     17571.94
        8771     1.002069     2.322165 -0.0001811616     17574.43
        8772     1.000865      2.32223 -0.0002729045     17577.82
        8773    0.9997315     2.321755 -0.0003454793     17581.08
        8774    0.9987431     2.321312  -0.00055258     17584.35
        8775    0.9980824     2.320783 -0.0005797717     17587.55
        8776    0.9974588      2.32002 -0.0007009747     17589.96
        8777     0.996866     2.319436 -0.0008367867     17592.07
        8778     0.996593     2.318508 -0.0009802932     17593.47
        8779    0.9963196     2.317436 -0.001143824     17594.23
        8780    0.9960775     2.316098 -0.001305669     17597.25
        8781    0.9961931     2.314861 -0.001489665     17601.58
        8782    0.9966924     2.313286 -0.001573929     17605.43
        8783     0.996883     2.311477 -0.001796408     17608.61
        8784    0.9962245     2.309803 -0.002002183      17609.9
        8785    0.9955523     2.307675 -0.002202026      17611.7
        8786    0.9948593     2.305277 -0.002344673      17613.9
        8787    0.9943946     2.302669 -0.002470482     17617.19
        8788    0.9942865     2.300424 -0.002588451      17618.2
        8789    0.9945942     2.297793 -0.002573596     17619.34
        8790    0.9953575     2.294923  -0.00261689     17623.28
        8791    0.9957489     2.292375 -0.002610602     17627.16
        8792    0.9960457     2.289957 -0.002528671     17631.61
        8793    0.9963462     2.287351 -0.002420676      17635.8
        8794    0.9965345     2.284809 -0.002363956     17637.66
        8795    0.9967011     2.282692 -0.002193971     17639.83
        8796    0.9968776     2.280501 -0.002092046     17642.43
        8797      0.99666     2.278575 -0.002023308     17643.68
        8798     0.996888      2.27644 -0.001871416     17646.84
        8799    0.9969702     2.274599 -0.001667678     17648.59
        8800    0.9965181     2.273015 -0.001450324     17649.96
        8801    0.9960647     2.271904 -0.001244753     17652.32
        8802    0.9958905     2.270639 -0.001145761     17655.67
        8803    0.9958786      2.26962   -0.0011289     17657.54
        8804    0.9959742     2.268432 -0.0009938728     17661.75
        8805    0.9958576     2.267389 -0.0008519103     17665.49
        8806    0.9954282     2.266664 -0.0007272033     17668.29
        8807    0.9950332     2.266212 -0.0005944133     17671.18
        8808    0.9946872     2.265523 -0.0004843841     17674.34
        8809    0.9947387     2.265011 -0.000526266     17677.22
        8810    0.9949635     2.264726 -0.0005099159     17679.83
        8811    0.9949781     2.264107 -0.0004740001     17683.29
        8812    0.9944871     2.263484 -0.0005493857     17685.54
        8813    0.9940524     2.263115 -0.0006548005     17686.22
        8814     0.993913     2.262529 -0.0006517582     17689.27
        8815    0.9940838     2.261488 -0.0007635991     17693.89
        8816    0.9941626     2.260876 -0.0007887584     17697.63
        8817    0.9945576     2.260061 -0.0006974615      17700.4
        8818    0.9951372     2.259373 -0.0007398573     17703.35
        8819    0.9954425     2.258698 -0.0009504886     17705.38
        8820    0.9955083     2.257917 -0.001014814     17706.96
        8821    0.9953102     2.256259 -0.001067175     17707.34
        8822    0.9953749     2.255314  -0.00127325     17708.42
        8823     0.995745     2.254429 -0.001245382     17707.93
        8824    0.9963022     2.252824 -0.001384584     17707.06
        8825    0.9958632     2.251277 -0.001578776     17705.96
        8826    0.9948227     2.249776  -0.00170457     17704.32
        8827    0.9939117     2.248114 -0.001740116     17699.37
        8828    0.9937854     2.246006 -0.001831897     17691.27
        8829    0.9941055     2.244317 -0.001967032     17672.99
        8830    0.9948467     2.242448 -0.001783394     17628.34
        8831    0.9970122     2.240246 -0.001491067     17492.29
        8832    0.9978566     2.238872 -0.001742611     17233.81
        8833    0.9938292     2.238352 -0.001346101     17208.16
        8834    0.9962443     2.235478 -0.001308711     17341.04
        8835    0.9963634     2.234861 -0.001602239     17245.76
        8836    0.9933804     2.233637 -0.001235023     17459.73
        8837    0.9952099     2.231943 -0.001382361     17700.06
        8838    0.9961631     2.230538 -0.001357116     17758.62
        8839    0.9965388     2.229332  -0.00114357      17772.9
        8840    0.9968063     2.228209 -0.001039474     17779.25
        8841     0.997233     2.227369 -0.001088986     17782.57
        8842    0.9975824      2.22638 -0.001019456     17785.01
        8843    0.9978862     2.224976 -0.001116354     17788.06
        8844    0.9980476     2.224131 -0.001119656     17792.04
        8845    0.9979541     2.222904 -0.001030066     17793.17
        8846    0.9980415     2.221901 -0.001116681     17795.08
        8847    0.9982649     2.220856 -0.001087386     17797.36
        8848    0.9986867     2.219664 -0.001147834     17801.53
        8849    0.9991251     2.218554 -0.001099855        17806
        8850     0.999489      2.21731 -0.001089934     17809.56
        8851      0.99973     2.216456 -0.001017099     17811.37
        8852    0.9999927     2.215305 -0.0009893905     17813.34
        8853      1.00047     2.214486 -0.0009845529     17815.01
        8854       1.0008     2.213352 -0.000924625     17816.81
        8855     1.000828     2.212518 -0.0009123628     17819.98
        8856     1.000895     2.211606 -0.0007772935     17823.19
        8857     1.000664     2.210836 -0.0007129506     17824.44
        8858     1.000644     2.210243 -0.000487252        17826
        8859     1.000744     2.209666 -0.0004938639     17829.64
        8860     1.000741     2.209657 -0.0004281669     17833.86
        8861     1.000577     2.208861 -0.0003864943     17839.03
        8862     1.000679      2.20853 -0.0005134202     17845.67
        8863     1.000899      2.20812 -0.0003223299     17849.83
        8864     1.000923     2.207603 -0.0002368445      17851.9
        8865     1.000083     2.207572 -0.0002121633     17853.12
        8866    0.9990433     2.207583 -7.746153e-05     17854.77
        8867    0.9983248     2.207272 -0.000102789     17856.28
        8868    0.9978625     2.207294 -0.0001075459     17857.85
        8869    0.9978261      2.20716 -5.212405e-05     17860.84
        8870      0.99774     2.207153 -6.373439e-05     17863.89
        8871    0.9981177     2.207063 6.712997e-06     17868.18
        8872    0.9979539     2.207039 1.846559e-05     17870.92
        8873    0.9977173     2.207187 9.667915e-05     17874.88
        8874    0.9978524     2.207227 0.0002117581     17878.22
        8875    0.9979703      2.20745 0.0002633638     17880.46
        8876      0.99786     2.207886 0.0001723406     17884.17
        8877     0.997501     2.208241 0.0002041854     17885.68
        8878    0.9973519     2.207916 0.0001532676     17886.63
        8879    0.9973368     2.208267 0.0002456952     17889.37
        8880    0.9970011     2.208499  0.000339017      17892.6
        8881    0.9968495     2.209224 0.0003238961     17896.26
        8882    0.9967658     2.209272 0.0003156012     17898.59
        8883    0.9967006     2.209562 0.0001856797     17900.44
        8884     0.996754     2.209761 0.0003146269     17902.45
        8885    0.9967804     2.209966  0.000285199     17905.61
        8886    0.9964834     2.210531  0.000297322     17908.84
        8887    0.9962616     2.210703 0.0002493773     17912.46
        8888    0.9961341      2.21095 9.864646e-05     17915.16
        8889    0.9965242     2.210964 3.470626e-05     17919.81
        8890    0.9966638     2.210925 -0.000110794      17922.6
        8891    0.9967465     2.210842 -0.0001016606     17925.29
        8892    0.9968841     2.210507 -0.0001910692     17927.22
        8893    0.9968071     2.210557 -0.0003138425     17929.19
        8894    0.9965696     2.210161 -0.0003541483      17931.3
        8895    0.9960027     2.209587 -0.0005562996     17934.61
        8896    0.9958574     2.209091 -0.0006148566     17938.61
        8897    0.9956025     2.208332 -0.0007260943     17940.57
        8898    0.9952448     2.207702 -0.0009322491     17943.41
        8899    0.9948411     2.206682 -0.001035688     17945.81
        8900    0.9945829     2.205362 -0.001198352      17947.9
        8901    0.9946656     2.204189 -0.001260797      17951.3
        8902    0.9949051     2.202908  -0.00133475     17954.88
        8903    0.9951807     2.201639 -0.001517923     17956.87
        8904    0.9954389     2.200023 -0.001592232     17960.05
        8905    0.9957125     2.198118  -0.00175611     17962.58
        8906    0.9955382     2.196539 -0.001853831     17963.86
        8907    0.9952572     2.194615 -0.001797593     17966.65
        8908    0.9952253     2.192607 -0.001774557     17970.18
        8909    0.9949642     2.190927 -0.001750865     17972.53
        8910    0.9946868     2.189441 -0.001701869     17975.16
        8911    0.9945373     2.187611 -0.001679977     17979.12
        8912     0.994468       2.1858 -0.001721099     17982.86
        8913    0.9944374     2.184207 -0.001609568     17985.37
        8914    0.9943974     2.182557 -0.001583856     17987.09
        8915    0.9943793     2.181173 -0.001498516     17989.15
        8916    0.9946872     2.179464 -0.001428745     17991.69
        8917    0.9949009     2.178213 -0.001452712     17993.68
        8918    0.9950648     2.176842  -0.00134345     17995.72
        8919    0.9951292     2.175362 -0.001395063     17999.36
        8920    0.9952064     2.174091 -0.001324718     18002.38
        8921    0.9952069     2.172633 -0.001176483     18005.37
        8922    0.9952456     2.171543 -0.001132247     18007.44
        8923    0.9954044     2.170656 -0.001035266     18010.71
        8924    0.9957664     2.169562 -0.001024395      18013.7
        8925    0.9960797     2.168492 -0.001063657     18016.85
        8926    0.9961683     2.167445 -0.001010568      18019.9
        8927    0.9962846     2.166401 -0.001000667     18022.17
        8928    0.9966342     2.165519 -0.0009958078     18023.17
        8929    0.9971373     2.164489 -0.0009004451     18024.36
        8930    0.9976216     2.163462 -0.000958403      18027.1
        8931    0.9979112       2.1628 -0.0009503733     18030.26
        8932    0.9984081     2.161686 -0.0008550921     18034.26
        8933    0.9989993     2.160688 -0.0008782263      18037.4
        8934    0.9991971     2.160042  -0.00077043     18039.27
        8935    0.9990503     2.159287 -0.0007736605     18040.85
        8936    0.9993892     2.158604 -0.0007499295     18038.41
        8937     1.000344     2.157593   -0.0007246     18014.77
        8938     1.000491     2.157042 -0.0006772508     17963.29
        8939    0.9997594     2.156388 -0.0005996957     17942.71
        8940    0.9991606     2.155895 -0.0007221911     17965.86
        8941    0.9987528     2.155194 -0.0007910366     18017.54
        8942    0.9991123     2.154153 -0.0008649285     18042.68
        8943    0.9993086     2.153224 -0.000881018     18050.72
        8944      0.99936     2.152435 -0.0008501269     18056.89
        8945    0.9997432      2.15167 -0.0007985946      18062.9
        8946     0.999991     2.150753 -0.000881828     18067.19
        8947     1.000221      2.15003 -0.0008539039     18071.18
        8948     1.000427     2.148908 -0.0008342402     18074.15
        8949     1.000562     2.148255 -0.0009018468     18077.13
        8950     1.000566     2.147416 -0.0008176331     18078.05
        8951     1.000567     2.146422 -0.0008917274     18080.66
        8952     1.000604     2.145637 -0.000849521     18081.61
        8953     1.001219     2.144688 -0.000840724      18084.3
        8954     1.001592     2.144018 -0.000831753      18089.2
        8955     1.001622      2.14306 -0.0008256556      18092.6
        8956     1.001411      2.14231 -0.0008862245     18093.74
        8957     1.001306     2.141385 -0.0008918451     18094.83
        8958     1.001106     2.140473 -0.0009309729     18096.33
        8959     1.001174     2.139492 -0.0009211051     18098.33
        8960     1.001401     2.138587 -0.0009985764     18100.52
        8961     1.001536     2.137701 -0.0009399985     18103.64
        8962     1.001584     2.136478 -0.0009429861      18106.3
        8963      1.00144     2.135732 -0.0009694984     18108.47
        8964     1.001358     2.134815 -0.0009481806     18111.09
        8965     1.001388     2.133823 -0.001003744     18116.42
        8966     1.001086     2.132686 -0.001043674     18119.59
        8967     1.001052     2.131717 -0.001042242     18121.68
        8968     1.001226      2.13064 -0.000986737     18123.16
        8969     1.001268     2.129654 -0.0009662265     18124.51
        8970     1.001444     2.128739 -0.0009578194     18125.36
        8971     1.001543     2.127852 -0.0009174641     18129.78
        8972      1.00156     2.126809 -0.0009955205     18134.93
        8973     1.001717     2.125984 -0.0009448084     18138.64
        8974     1.001883     2.124757 -0.0008771871     18140.58
        8975     1.001772     2.124073 -0.0009291048     18141.99
        8976     1.001702       2.1233 -0.000796238      18143.5
        8977     1.001922     2.122267 -0.0008050451     18145.83
        8978      1.00199     2.121572 -0.0008518524     18147.74
        8979     1.001916     2.120853 -0.0007426409      18148.4
        8980     1.001921     2.119893 -0.0006706391     18150.76
        8981     1.001839     2.119297 -0.0007471515     18152.61
        8982     1.001782     2.118889 -0.0007061304     18153.26
        8983      1.00164     2.117864 -0.0006815271     18153.73
        8984     1.001199     2.117068 -0.0007484329     18155.92
        8985     1.000894     2.116571 -0.0006536634     18158.13
        8986      1.00082     2.115895 -0.0006210366     18160.22
        8987     1.000657      2.11525 -0.0006626495     18162.66
        8988     1.000623     2.114584 -0.0006526254     18165.07
        8989     1.000882      2.11392 -0.0005754855     18167.35
        8990     1.001022     2.113285 -0.0005388195     18169.33
        8991     1.001038     2.112948  -0.00051631     18169.41
        8992     1.001092     2.112429 -0.0005519336     18170.04
        8993     1.001181     2.111855 -0.0005712659     18172.75
        8994     1.001125     2.111077 -0.000511688     18175.06
        8995     1.001322     2.110663 -0.000489171     18177.93
        8996     1.001359     2.110382 -0.0004655389     18180.29
        8997     1.001357     2.109898 -0.0004479292      18182.8
        8998     1.001188     2.109215 -0.0005687586     18184.37
        8999     1.000892     2.108871 -0.0006084039     18186.15
        9000       1.0005     2.108107  -0.00057766     18187.91
        9001     1.000479     2.107465 -0.0005844664     18190.46
        9002     1.000341     2.106904 -0.0005331825     18192.75
        9003     1.000318     2.106533 -0.0005122294     18196.55
        9004     1.000294     2.105974 -0.0004664166     18199.55
        9005     1.000417     2.105416 -0.0005148435     18203.11
        9006     1.000353     2.105039 -0.000495986     18204.89
        9007     1.000341     2.104474 -0.0004827645     18207.09
        9008     1.000534      2.10399 -0.0004434689     18210.06
        9009     1.000611     2.103485 -0.0003998919     18212.42
        9010     1.000476     2.103265 -0.0003569755     18213.73
        9011     1.000216     2.102874 -0.0003572821     18215.66
        9012     1.000152     2.102562 -0.000442616     18217.33
        9013     1.000044     2.102055 -0.000466931      18219.3
        9014     1.000101     2.101494 -0.0004607995     18221.52
        9015      1.00059     2.101006 -0.0004720529     18223.69
        9016     1.001124     2.100719 -0.0003993705     18226.43
        9017     1.001245     2.100167 -0.0004148191     18228.97
        9018     1.000534     2.099897 -0.0004919709     18231.14
        9019    0.9994549     2.099347 -0.0004769656     18233.38
        9020    0.9986586     2.098751 -0.0005458185     18237.05
        9021    0.9982156     2.098259 -0.000537951     18240.29
        9022    0.9980085     2.097714 -0.0005150545     18242.95
        9023    0.9978236     2.097195 -0.0005438131     18245.15
        9024    0.9978382     2.096691 -0.0005992085     18247.99
        9025    0.9980244     2.096084 -0.0005994315     18250.09
        9026    0.9979721     2.095317 -0.0006405621     18250.66
        9027    0.9981385     2.094798 -0.0006934339     18254.33
        9028     0.998059     2.094129 -0.0006557105     18257.41
        9029    0.9982226      2.09331 -0.0006525051     18260.63
        9030    0.9983378     2.092694 -0.000738369     18262.94
        9031    0.9984559     2.092188 -0.0007259845     18265.43
        9032    0.9987763     2.091175 -0.0007518341     18267.09
        9033    0.9990943     2.090406 -0.0007847799     18268.38
        9034    0.9991562     2.089687 -0.0007486135     18270.64
        9035    0.9988809     2.089048 -0.0007896871     18273.85
        9036     0.998588     2.088181 -0.0008103769      18276.2
        9037    0.9985776     2.087248 -0.0007325471     18278.84
        9038    0.9985724     2.086445 -0.0007664724     18280.75
        9039    0.9986072     2.086118 -0.0007179674     18280.69
        9040    0.9989734     2.085115 -0.0006866582     18281.79
        9041    0.9991585     2.084376 -0.0007819349     18283.33
        9042    0.9993767     2.083698 -0.0007336285      18285.6
        9043     0.999355      2.08299 -0.0007575951     18287.48
        9044    0.9990329      2.08218 -0.0008127445     18289.93
        9045    0.9987613     2.081345 -0.0008265416     18294.42
        9046    0.9984444     2.080447 -0.0009091115     18297.15
        9047    0.9981629     2.079684 -0.0009012995      18298.6
        9048    0.9982338     2.078544 -0.0009001086      18301.6
        9049    0.9983567      2.07774 -0.0009198528     18303.31
        9050    0.9985036     2.076847 -0.0008167516     18303.32
        9051     0.998568     2.076005 -0.0008818675     18304.31
        9052    0.9988835     2.075277 -0.0008823304     18307.79
        9053    0.9992622     2.074213 -0.0008562271     18311.75
        9054    0.9995551     2.073318 -0.000886329     18314.87
        9055    0.9995197      2.07258 -0.0008705186     18316.26
        9056    0.9993501     2.071732 -0.0009317471     18317.29
        9057    0.9991786     2.070731 -0.0009541334     18318.42
        9058    0.9991272     2.069591 -0.0009086256     18318.94
        9059    0.9993706     2.068763 -0.0009477444     18321.42
        9060     0.999693     2.068097 -0.0008624254     18322.75
        9061     1.000041      2.06694 -0.0008231936     18322.84
        9062     1.000264     2.066141 -0.0008538744     18324.39
        9063     1.000226     2.065471 -0.0007927911     18325.89
        9064     1.000177     2.064682 -0.0008918806     18326.95
        9065     1.000283     2.063769 -0.0009143194     18329.04
        9066     1.000317     2.062573 -0.0008563306     18331.74
        9067     1.000079     2.061813 -0.0008809717     18333.66
        9068    0.9996506     2.061256 -0.000710588     18335.34
        9069    0.9995547     2.060245 -0.0007059442        18338
        9070    0.9996338     2.059731 -0.0007913439     18341.89
        9071    0.9997353      2.05899 -0.0007440006     18344.55
        9072    0.9996863     2.058091 -0.0008107306     18346.19
        9073    0.9997723     2.057269 -0.0008365654     18348.39
        9074     1.000178     2.056488 -0.0007876465     18350.77
        9075     1.000508     2.055643 -0.0007919931     18352.72
        9076      1.00086      2.05494 -0.000826243     18354.57
        9077     1.001319     2.054101 -0.0008214525     18356.45
        9078      1.00159     2.053183 -0.0008221651     18359.31
        9079     1.001424     2.052358 -0.0008539504     18360.26
        9080     1.001337     2.051652 -0.000813175     18361.39
        9081     1.001351     2.050685 -0.0008064745     18362.26
        9082     1.001346     2.049931 -0.0008014615     18361.55
        9083     1.001328     2.049132 -0.000798573     18361.15
        9084     1.001465     2.048446 -0.0008274601     18358.09
        9085     1.001688     2.047491 -0.0008709495     18343.85
        9086     1.001658     2.046621 -0.0008522849     18319.53
        9087     1.001576     2.045648 -0.000779687     18300.58
        9088     1.001441     2.045037 -0.0007884684     18292.69
        9089     1.001378     2.044372 -0.0007514796     18284.53
        9090     1.001833     2.043467 -0.0008237002     18260.23
        9091     1.002043     2.042642  -0.00089243     18210.37
        9092     1.002367     2.041742  -0.00061658     18164.99
        9093     1.003128     2.040802 -0.0006778207     18077.72
        9094     1.001092     2.041001 -0.0008022608     18058.89
        9095     1.000994     2.039931 -0.0007254682     18212.19
        9096     1.002773     2.038533 -0.0008122894     18238.17
        9097     1.003272       2.0379 -0.0007011274     18118.45
        9098     1.001879     2.037751 -0.000602764     18100.95
        9099      1.00182     2.037126 -0.0006210883     18206.05
        9100      1.00272     2.036122 -0.0008191882      18287.1
        9101     1.003161     2.035416 -0.0008889628     18307.61
        9102     1.003413     2.034475 -0.0007759211     18328.91
        9103     1.003247      2.03357 -0.0008307669     18348.42
        9104     1.002941     2.033018 -0.000781507     18359.59
        9105     1.002657     2.032093 -0.0007783005     18367.73
        9106     1.002166     2.031349 -0.0008084255     18377.74
        9107      1.00183     2.030457 -0.000815165     18395.27
        9108      1.00141     2.029784 -0.0008216715     18412.39
        9109     1.001181     2.028832 -0.0007990175     18422.31
        9110     1.001114     2.028062 -0.000800361     18427.88
        9111     1.000986     2.027261  -0.00078968     18432.06
        9112      1.00094     2.026583 -0.000812435     18435.41
        9113     1.000744     2.025673 -0.0008100975     18437.63
        9114     1.000728     2.024812 -0.0007995585     18440.47
        9115     1.000597     2.024021 -0.0007741084     18443.76
        9116     1.000495     2.023385 -0.000706994     18448.79
        9117     1.000472     2.022577 -0.0007103695     18452.61
        9118      1.00047     2.021984 -0.000744924     18455.05
        9119     1.000308     2.021179 -0.0007830361     18456.55
        9120     1.000492     2.020405 -0.000850941     18457.75
        9121     1.000709     2.019445 -0.0008569905     18458.05
        9122     1.000857      2.01858 -0.0008303869        18459
        9123     1.000961     2.017751 -0.0007324469     18460.37
        9124      1.00091     2.017083 -0.0006739984     18462.24
        9125     1.000823     2.016515 -0.0006163571     18465.66
        9126     1.000701     2.015884 -0.0006741285     18469.12
        9127     1.000519     2.015286 -0.0006565951     18471.52
        9128     1.000303     2.014387 -0.0006843359     18474.11
        9129     1.000129     2.013889 -0.0006213354     18476.02
        9130     1.000298     2.013147 -0.0005987266     18478.83
        9131     1.000532       2.0128 -0.0006423685     18479.79
        9132     1.000651     2.011992 -0.0006495357     18480.44
        9133     1.000942     2.011319 -0.0007335339     18482.67
        9134     1.001127     2.010549 -0.0006704089     18484.86
        9135     1.001136     2.009866 -0.000622023     18487.49
        9136     1.001234      2.00931 -0.0006223604     18489.59
        9137     1.001211     2.008831 -0.0005195434     18489.29
        9138     1.001601     2.008059 -0.0004735391     18490.12
        9139     1.002217     2.007788 -0.0005369899     18490.26
        9140     1.003044     2.007416 -0.0005035126     18491.56
        9141     1.002975     2.006683 -0.000561241     18493.52
        9142     1.002869     2.006045 -0.0005603279     18496.82
        9143     1.002614     2.005543 -0.000483053      18499.4
        9144     1.002328     2.005175 -0.0004710276     18502.53
        9145     1.002127     2.004751 -0.000522935     18505.38
        9146     1.002285     2.004161 -0.000507976     18507.43
        9147     1.002273     2.003451 -0.0005032205     18508.66
        9148     1.002325     2.003143 -0.0005139214     18510.26
        9149     1.002305     2.002738 -0.0004938221     18510.56
        9150     1.002303     2.002106 -0.0005504275      18511.9
        9151     1.002069     2.001476 -0.0005449654      18513.2
        9152     1.001672     2.000941 -0.000511638     18513.65
        9153     1.001298     2.000558 -0.000527402      18514.6
        9154     1.001101     2.000059 -0.0005420221     18516.59
        9155     1.000974     1.999366 -0.0006366556     18518.76
        9156      1.00097     1.998773 -0.0006592163     18519.46
        9157     1.000934     1.998012  -0.00055561     18521.58
        9158     1.000929     1.997422 -0.0005366775     18523.62
        9159     1.001056     1.997144  -0.00052799     18525.16
        9160     1.001452     1.996626 -0.0005484946     18528.02
        9161     1.001839       1.9959 -0.0006014351     18531.01
        9162     1.002092     1.995228 -0.0006757715     18532.69
        9163     1.002357     1.994738 -0.0006517984     18535.72
        9164      1.00232     1.993923 -0.0005901446     18538.76
        9165     1.002013     1.993292 -0.0006203539     18541.21
        9166     1.001694     1.992868 -0.0005891326     18542.58
        9167     1.001597     1.992257 -0.0006305876     18543.54
        9168     1.001577     1.991567 -0.0006793731     18546.33
        9169     1.001626      1.99077 -0.0007318659     18549.58
        9170     1.001869      1.99015 -0.0006929885     18552.35
        9171     1.002251     1.989329 -0.0007067636     18555.11
        9172     1.002239     1.988795 -0.0007271284     18555.09
        9173     1.002136     1.987943 -0.0007042176     18555.12
        9174     1.002058     1.987242 -0.0007626443     18555.34
        9175     1.001937     1.986513 -0.0006603655      18556.5
        9176     1.001931     1.985744 -0.000685192     18557.72
        9177     1.001848     1.985302 -0.0006670739     18557.66
        9178     1.001929     1.984501 -0.0006291441     18558.77
        9179     1.001746     1.983844 -0.0006884635     18558.44
        9180     1.002032     1.983228 -0.0006663315     18560.64
        9181      1.00209     1.982548 -0.0006715545     18562.23
        9182     1.001703     1.981836 -0.000684818      18562.3
        9183      1.00118     1.981158 -0.0006598215     18563.05
        9184     1.000924     1.980488 -0.0006678719     18564.07
        9185     1.000915     1.979908 -0.000631592     18565.78
        9186     1.001034     1.979164 -0.0006593905     18567.47
        9187     1.000929     1.978632 -0.0006770415     18569.23
        9188     1.000727     1.977851 -0.0006597945     18570.28
        9189     1.000394       1.9772 -0.0006723099     18571.09
        9190     1.000313     1.976525 -0.0006093645     18571.39
        9191     1.000373     1.975942 -0.0006149029     18573.19
        9192     1.000475     1.975413 -0.0005779551     18575.53
        9193     1.000398     1.974741 -0.000641127     18577.82
        9194     1.000367     1.974213 -0.000631302     18579.71
        9195     1.000357     1.973378   -0.0006194     18579.65
        9196     1.000444     1.972888 -0.0006353485     18580.59
        9197     1.000464     1.972263 -0.000649284     18580.55
        9198     1.000645     1.971672 -0.0006421789     18581.26
        9199      1.00072     1.970781 -0.0005880906     18582.89
        9200     1.000944      1.97032 -0.0006405035     18586.07
        9201     1.000949     1.969911 -0.0006353745     18588.29
        9202     1.000811      1.96911  -0.00065762      18588.7
        9203      1.00097     1.968239 -0.0006667215     18590.21
        9204     1.001192     1.967689 -0.0006415695     18591.51
        9205     1.001369     1.967244 -0.0006165455     18592.32
        9206     1.001627     1.966543 -0.0006064111     18593.78
        9207      1.00194     1.965773 -0.000689678     18594.79
        9208     1.002332     1.965263 -0.0006756149     18595.91
        9209     1.002585     1.964485 -0.0006458151     18598.37
        9210     1.002713     1.963841 -0.0007290809     18601.42
        9211      1.00284      1.96319 -0.0006881929      18604.5
        9212     1.002871     1.962347 -0.0006709261     18606.23
        9213     1.003178     1.961732 -0.0007317399     18607.53
        9214     1.003523     1.961157 -0.0007030001      18608.4
        9215     1.003731     1.960263 -0.000767355     18609.47
        9216     1.003873     1.959535 -0.000745901     18611.85
        9217     1.004099     1.958663 -0.0007174335     18613.74
        9218     1.004252     1.958174 -0.0007069104        18615
        9219     1.004011     1.957393 -0.0006777631     18615.31
        9220     1.003689     1.956707 -0.000750557     18615.92
        9221     1.003682     1.955952 -0.0007619685     18616.53
        9222     1.003577     1.955171 -0.0007850295     18618.94
        9223     1.003306     1.954345 -0.000774599     18621.34
        9224     1.002821     1.953567 -0.0007563009     18622.27
        9225     1.002345     1.952853 -0.000705352     18623.22
        9226     1.002162     1.952146 -0.0006983985     18625.35
        9227     1.002071     1.951524 -0.0007026675     18627.22
        9228     1.002014     1.950774 -0.000721201      18630.3
        9229     1.001752     1.950043 -0.000724642     18631.92
        9230      1.00146     1.949261 -0.000722606     18632.22
        9231     1.001346     1.948625 -0.0007324065     18632.78
        9232      1.00117     1.947883 -0.0007507076      18633.3
        9233     1.001345     1.947113 -0.0007898165     18633.65
        9234     1.001922     1.946259 -0.0007585895     18633.84
        9235     1.001993     1.945466 -0.0007194119     18633.23
        9236     1.001777     1.944849 -0.0006468774      18634.6
        9237     1.001501     1.944236 -0.0006176026     18636.38
        9238     1.001055     1.943671 -0.000682419     18637.81
        9239     1.000777     1.942996 -0.0006832456     18638.55
        9240     1.000844     1.942119 -0.0007350905      18640.4
        9241     1.000756     1.941503 -0.0007273229     18642.13
        9242     1.000435     1.940731 -0.0006738655      18642.4
        9243     1.000458     1.940086 -0.0007096476      18643.3
        9244     1.000573     1.939424  -0.00076699        18643
        9245     1.000831     1.938664 -0.0007863644     18641.11
        9246     1.001092     1.937663 -0.0007376664     18639.47
        9247     1.001372     1.936941 -0.000707339     18636.31
        9248     1.001351     1.936473 -0.0007008058     18626.71
        9249     1.001382     1.935835 -0.000596149     18587.03
        9250      1.00194      1.93486 -0.0005872411     18477.76
        9251      1.00042     1.934556 -0.000652627     18405.26
        9252    0.9998259     1.934124 -0.0006751215     18514.62
        9253     1.000808     1.933224 -0.0006775156     18583.41
        9254     1.001745     1.932159 -0.0007050405     18517.71
        9255     1.001281     1.931846 -0.0006550693     18426.56
        9256     1.000751     1.931304 -0.0005525477     18511.55
        9257     1.000831     1.930604 -0.000708519     18614.13
        9258     1.001025     1.929949 -0.0007286855     18661.75
        9259     1.000936     1.929012 -0.0007469055     18672.76
        9260      1.00075     1.928389 -0.0007222269     18676.59
        9261      1.00064     1.927616  -0.00066325     18678.61
        9262     1.000571      1.92706 -0.0006736819     18680.29
        9263     1.000615     1.926359 -0.0006362651      18682.6
        9264     1.000528     1.925695 -0.0006934374     18684.58
        9265     1.000324     1.925071 -0.0006467426     18685.23
        9266     1.000049     1.924286 -0.0007192574     18685.41
        9267    0.9997473     1.923772 -0.0006623919     18684.39
        9268    0.9993832     1.922818 -0.0006397901     18685.14
        9269    0.9990771     1.922422 -0.0006533568     18686.53
        9270     0.999098     1.921727 -0.0005761912     18687.65
        9271    0.9992278     1.921159 -0.0006759729     18689.14
        9272    0.9994648     1.920513 -0.0006439695     18691.43
        9273      0.99979     1.919718 -0.0006367869     18694.34
        9274     1.000013     1.919151 -0.0006006495     18695.74
        9275     1.000333     1.918612 -0.000592852     18696.29
        9276     1.000233      1.91811 -0.0006088071     18695.54
        9277     1.000177     1.917346 -0.0006643136     18696.67
        9278     1.000359     1.916716 -0.0006882109     18699.45
        9279     1.000593     1.915954 -0.0006458065     18700.91
        9280     1.000845     1.915357 -0.0006450095        18701
        9281     1.000859     1.914763 -0.000618827     18702.17
        9282     1.000939     1.914136 -0.0006150369     18704.04
        9283     1.000961     1.913479 -0.0005957651     18703.87
        9284     1.001102     1.912897 -0.0006394355     18704.98
        9285     1.000853      1.91238  -0.00061275     18706.85
        9286     1.000667     1.911578 -0.0006093061     18709.04
        9287     1.000322     1.911028 -0.0006328579     18709.84
        9288      1.00001      1.91046 -0.0005672441     18711.33
        9289    0.9995659     1.909849 -0.000625436      18711.9
        9290     0.999281     1.909309 -0.0006025665     18712.31
        9291    0.9992014     1.908526 -0.0005887629     18712.75
        9292    0.9989962      1.90805  -0.00053589     18714.26
        9293    0.9990725     1.907494 -0.0005380606     18715.06
        9294     0.999393     1.907166 -0.0005922909     18716.22
        9295     0.999612     1.906374 -0.0005699132     18717.69
        9296    0.9996229     1.905681 -0.0006514693     18718.61
        9297    0.9994851     1.905214 -0.0005319255     18719.69
        9298    0.9994551      1.90456 -0.0005649221     18721.67
        9299    0.9992985     1.904246 -0.0006106673     18723.65
        9300    0.9992095     1.903421 -0.0005084972      18725.6
        9301     0.999275     1.902771 -0.0006249155      18726.4
        9302    0.9991228     1.902526 -0.0005869444     18727.47
        9303    0.9991984     1.901747 -0.0005382111     18728.15
        9304    0.9992181     1.901073 -0.0005999279     18727.55
        9305    0.9993131     1.900618 -0.0005637145     18727.44
        9306    0.9994685     1.900126 -0.0005539174     18728.11
        9307    0.9997883     1.899492 -0.0005159481     18729.59
        9308    0.9999626     1.898857 -0.0005473205     18730.47
        9309    0.9999005     1.898555 -0.0005446245     18730.78
        9310     1.000019     1.897937 -0.0005481111     18732.76
        9311     1.000213     1.897313 -0.000600418     18732.73
        9312     1.000589     1.896665 -0.000588977     18733.15
        9313     1.000953     1.896153 -0.0005901645     18734.18
        9314     1.001184     1.895581 -0.0005862925     18735.35
        9315     1.001131     1.894953 -0.0005689016     18735.89
        9316     1.001093      1.89432 -0.000607347     18736.83
        9317     1.000978     1.893877 -0.0005850609     18739.16
        9318     1.001037     1.893151 -0.0005488656     18741.75
        9319     1.001053     1.892612 -0.0006029165     18744.04
        9320     1.000825     1.892124 -0.0006165664     18743.13
        9321     1.000686     1.891466 -0.000584929     18741.93
        9322     1.000523     1.890685 -0.0005940895     18741.45
        9323     1.000355     1.890273 -0.0005938999      18741.8
        9324     1.000152     1.889748 -0.0005504855     18742.53
        9325     1.000324      1.88909 -0.0005704771     18744.46
        9326     1.000649     1.888483 -0.000610225     18746.14
        9327     1.000979     1.887991 -0.0005975045     18746.99
        9328     1.001527     1.887307 -0.000589256     18748.79
        9329     1.001517       1.8867 -0.000619469     18749.91
        9330     1.001536     1.886126  -0.00061668     18751.85
        9331     1.001888     1.885513 -0.0005890835     18753.01
        9332     1.002274      1.88484 -0.0005954245     18752.51
        9333     1.002662     1.884344 -0.000591329     18751.41
        9334     1.003047     1.883745 -0.000564139     18751.86
        9335     1.003196     1.883148 -0.0005618356     18754.28
        9336     1.003083     1.882584 -0.000603488     18757.95
        9337     1.003036     1.882096 -0.000608934      18760.3
        9338     1.003439     1.881331 -0.0005894205     18761.29
        9339     1.003592     1.880712 -0.0005871015     18760.62
        9340     1.003777     1.880226 -0.000564195     18760.03
        9341     1.003859     1.879748 -0.0005577916     18760.39
        9342     1.003749     1.879074 -0.0006338565     18759.69
        9343     1.003683     1.878481 -0.0006410149      18760.7
        9344     1.003749     1.877691 -0.0006202411     18762.15
        9345     1.003546     1.877184 -0.0006549773     18762.42
        9346      1.00329     1.876593 -0.000556459     18763.16
        9347     1.002868     1.875861 -0.0006006401     18764.17
        9348     1.002503     1.875465 -0.0006552568     18764.92
        9349     1.002243     1.874781 -0.000556744     18763.72
        9350     1.002022     1.873972 -0.0006053596     18760.25
        9351     1.001727     1.873634 -0.0006678293     18756.75
        9352     1.001772     1.873043 -0.0005698961     18759.18
        9353     1.001814      1.87211 -0.0006475781     18762.71
        9354     1.001535     1.871692 -0.0006703314     18763.72
        9355     1.001426     1.871044 -0.0006040131     18765.17
        9356     1.001499     1.870362 -0.0006809295     18768.91
        9357     1.001814     1.869694 -0.0006653104     18774.03
        9358     1.001655     1.868968 -0.000613335     18775.88
        9359     1.001502     1.868382 -0.0005895229     18775.48
        9360     1.001333     1.867909 -0.0005336665     18774.35
        9361     1.001337     1.867336 -0.0005342771     18771.71
        9362     1.001558     1.866834 -0.0005942885     18769.42
        9363      1.00193     1.866245 -0.0005851216     18769.69
        9364     1.002419     1.865532 -0.0006347635     18771.63
        9365     1.002592     1.864995 -0.0006342305     18772.48
        9366     1.002439     1.864295  -0.00060303     18773.23
        9367     1.002155     1.863708 -0.0005846399     18776.45
        9368     1.001644     1.863119 -0.0005523456     18781.27
        9369     1.001211     1.862657 -0.0006243425     18783.98
        9370     1.001006     1.862085 -0.0006219305     18784.45
        9371     1.000655     1.861211 -0.0006281126     18785.52
        9372     1.000338     1.860632 -0.0006714054     18787.56
        9373     1.000243     1.860144 -0.0006106615     18788.32
        9374     1.000195       1.8594 -0.0005788095     18786.99
        9375      1.00035     1.858768 -0.0005837916     18785.69
        9376      1.00066     1.858316 -0.0006193584     18786.35
        9377     1.000998     1.857809 -0.0005677415     18787.28
        9378     1.001392     1.856922 -0.0005841136     18788.61
        9379     1.001612     1.856497 -0.0006233444     18790.56
        9380     1.001641      1.85598 -0.0005472371     18791.14
        9381     1.001636     1.855316 -0.0006088366     18791.44
        9382     1.001584     1.854733 -0.0006577525     18792.49
        9383     1.001624     1.854062 -0.0006490219     18793.46
        9384     1.001815     1.853349 -0.000615102     18794.63
        9385     1.001849      1.85272 -0.0006040634     18795.78
        9386     1.001549     1.852273 -0.0005429335     18797.06
        9387      1.00113     1.851646 -0.000574704     18797.02
        9388     1.001137     1.851177 -0.0005943715     18798.13
        9389     1.001408     1.850421 -0.0006109956      18798.1
        9390     1.001506     1.849895 -0.0006528324     18797.22
        9391     1.001318     1.849202 -0.0005875876     18797.09
        9392     1.000871     1.848566 -0.0006179574     18796.67
        9393     1.000423     1.848071 -0.0005844316     18795.12
        9394     1.000267     1.847424 -0.0006353411     18795.31
        9395     1.000333     1.846864 -0.0006808674     18796.24
        9396     1.000248     1.846025 -0.0006376841     18797.15
        9397     1.000095     1.845347 -0.0006529134     18797.99
        9398     1.000191     1.844873 -0.0005697035     18798.95
        9399     1.000232     1.844252 -0.0005418815     18800.75
        9400     1.000079     1.843746 -0.000557032      18801.1
        9401     1.000089      1.84318 -0.0005778636        18801
        9402    0.9998698     1.842645 -0.0006182741     18800.98
        9403    0.9996795     1.841941 -0.0006591201     18802.49
        9404    0.9995628     1.841273 -0.0006850119     18804.46
        9405    0.9996605     1.840543 -0.0006269354     18804.63
        9406    0.9999288     1.839905 -0.0005891626     18805.96
        9407     1.000211     1.839433 -0.0006196414      18807.4
        9408      1.00049     1.838916 -0.0005778726     18806.24
        9409     1.000545     1.838064 -0.0006354825     18805.56
        9410     1.000398     1.837593 -0.0006426279     18807.06
        9411     1.000406     1.836891 -0.0005988686     18808.46
        9412     1.000059     1.836346 -0.0006463424     18808.69
        9413    0.9997796     1.835669 -0.0005868775     18809.58
        9414    0.9996165     1.835008 -0.0005830046     18810.92
        9415    0.9992474     1.834544 -0.000674877      18811.1
        9416    0.9990587     1.834014 -0.0006689914     18812.13
        9417    0.9990594      1.83297 -0.0006120776     18811.79
        9418    0.9990577     1.832332 -0.0006493932     18809.51
        9419    0.9993942     1.832095 -0.0005011701     18808.59
        9420    0.9995112     1.831416 -0.0005586246      18808.6
        9421    0.9995914     1.830965 -0.0006216279      18807.8
        9422    0.9997456     1.830097 -0.0005835567     18807.07
        9423    0.9998077     1.829609 -0.0006747624     18805.97
        9424    0.9998673     1.829082 -0.0005955245     18806.71
        9425    0.9996203     1.828266 -0.0006284771     18806.46
        9426    0.9996213     1.827715 -0.0006694914     18807.01
        9427    0.9995373     1.827095 -0.0006358696      18807.1
        9428    0.9993515     1.826404 -0.0006514599     18807.04
        9429      0.99899     1.825722 -0.0005754616     18806.14
        9430    0.9985869     1.825109 -0.0006147619     18806.33
        9431     0.998204     1.824793 -0.0005680545     18807.52
        9432     0.998131     1.823945 -0.0005832747     18807.97
        9433    0.9982491      1.82345 -0.0006732219     18808.66
        9434    0.9985449     1.822776 -0.0005973325     18809.08
        9435    0.9988965       1.8221 -0.0006191905     18808.29
        9436     0.999188     1.821555 -0.0006129904      18808.2
        9437    0.9991787     1.820973 -0.0005878461     18808.16
        9438    0.9991047     1.820324 -0.0006169589     18808.47
        9439    0.9990942     1.819749 -0.0005864575     18808.05
        9440    0.9991145     1.819088 -0.000594331     18808.07
        9441    0.9989844     1.818627 -0.000570658     18808.41
        9442    0.9988618     1.817947 -0.0005755076      18808.5
        9443    0.9988583     1.817466 -0.0006402644     18806.94
        9444    0.9987845     1.816785 -0.0005682391     18806.56
        9445    0.9985767     1.816066 -0.000637044     18805.91
        9446    0.9983381     1.815674 -0.0006105319     18806.67
        9447    0.9982185     1.814918 -0.0005965536     18807.62
        9448    0.9980894     1.814343 -0.0006566199     18807.68
        9449    0.9980222      1.81368 -0.0005959765     18808.13
        9450    0.9980561     1.813048 -0.0005879925     18807.17
        9451    0.9978522     1.812534 -0.000565959     18805.97
        9452    0.9977858     1.811991  -0.00057392     18806.49
        9453     0.998057     1.811416 -0.000585373     18806.09
        9454     0.998365     1.810752 -0.0005907345     18805.34
        9455    0.9989296     1.810193 -0.000586453     18806.09
        9456    0.9994345     1.809628 -0.000576163     18805.19
        9457    0.9998978     1.809071 -0.0005830346     18804.28
        9458     1.000119     1.808447 -0.000638797     18803.01
        9459      1.00016      1.80786 -0.0006301729     18802.33
        9460     1.000288     1.807073 -0.000571598     18803.15
        9461     1.000365      1.80655 -0.0005654138      18804.5
        9462     1.000257     1.806161 -0.0004618506     18806.07
        9463    0.9998586     1.805599 -0.0005133331     18807.73
        9464    0.9991145     1.805226 -0.0005759499     18808.39
        9465    0.9985079     1.804497 -0.0005390161     18808.81
        9466    0.9979098     1.803857 -0.0006015084     18809.38
        9467    0.9974113     1.803443 -0.0005518404     18809.92
        9468    0.9970716      1.80282 -0.0005186661     18809.79
        9469    0.9968203     1.802289 -0.000600264     18809.74
        9470    0.9966954     1.801782 -0.0005899875     18809.41
        9471    0.9968204     1.801042 -0.000567884      18809.3
        9472    0.9967625      1.80046 -0.000576621     18807.57
        9473    0.9967233     1.800018 -0.0005741334     18806.49
        9474    0.9967563     1.799476 -0.000518347     18805.97
        9475    0.9966818     1.798745 -0.0005525927     18804.11
        9476    0.9967001     1.798386 -0.0006451252     18803.54
        9477    0.9969964     1.797807 -0.0004926711     18804.28
        9478     0.997235     1.796895 -0.000565502     18803.66
        9479    0.9974042     1.796774 -0.0005309024     18803.45
        9480    0.9973778     1.796124 -0.0004762222     18803.37
        9481    0.9966353     1.795684 -0.0006065239     18803.38
        9482    0.9961724     1.794991 -0.0005787855     18802.08
        9483    0.9960516     1.794348 -0.0005961929     18798.15
        9484    0.9961212     1.793809 -0.000558179     18788.91
        9485    0.9960316     1.793299 -0.0005271534     18770.51
        9486    0.9961178     1.792758 -0.0004918835     18762.33
        9487    0.9963466      1.79224 -0.0005279621      18768.1
        9488    0.9963282     1.791842 -0.0005666075     18776.99
        9489    0.9961917     1.791187 -0.000553136     18785.76
        9490    0.9958998     1.790491 -0.0005731185     18787.49
        9491    0.9958928     1.790027 -0.0005830624     18778.99
        9492    0.9959016     1.789549 -0.0005475165     18762.11
        9493      0.99601     1.788855 -0.0005811695     18758.38
        9494    0.9959777     1.788301 -0.0005827719     18766.23
        9495    0.9960029     1.787703 -0.000545686     18777.47
        9496    0.9958951     1.787218 -0.0005508155     18786.39
        9497    0.9956327     1.786672 -0.0005387121     18788.01
        9498     0.995458     1.786098 -0.000572501      18787.3
        9499    0.9953757     1.785548 -0.0005903741     18786.96
        9500    0.9953757     1.785548 -0.0005903741     18786.96
