# This file has been produced by extranormal (v 1.0.1 - February 23, 2017)
# O. Roudenko - Synchrotron SOLEIL. Covered by GPL licence.
#Data from HDF File: /nfs/ruche-rock/rock-soleil/com-rock/2022/Projets/20220725_Gilles/op5_cell4_alone/op5_cell4_pos2_dq1/op5_cell4_pos2_dq1_0010/op5_cell4_pos2_dq1_0010_14188.nxs to op5_cell4_pos2_dq1_0010_14211.nxs
#Time at start=2022-07-28 12:05:48.613
#Time from start (seconds)=64.8078521265
#Sample temperature (C)=nan
# Normalization -------------
# pivot spectrum: LNO_pristine_av1100_00001.txt
# E0=8332.88   Eshift=-0.20000039927
# E0_pivot = 8349.6
# pre-edge params: from E0_pivot-240.0 to E0_pivot-50.0
# pre-edge range: [8109.6, 8299.6]
# post-edge params: from E0_pivot+70.0 to E0_pivot+1155.0
# post-edge range: [8419.6, 9500.0]
# I jump at E0_pivot = 0.724431205495
# shifted energy	normalized	reference	ref.derivative	I0
        8060  0.003425911     1.042633 -0.0004587016      14938.5
        8065  0.001579563      1.04034 -0.0004570938     14958.21
        8070  0.001978215     1.038059 -0.0004487199      14983.4
        8075  0.002253386     1.035786 -0.0004490468     15006.71
        8080  0.003208155     1.033659 -0.0004531271      15028.4
        8085  0.004031091     1.031359 -0.0004519787     15048.52
        8090  0.003713734     1.028997 -0.000461722     15070.05
        8095  0.003173084     1.026747 -0.0004463022     15094.27
        8100  0.002936197     1.024424 -0.0004456523     15116.69
        8105  0.002420638     1.022433 -0.0004364067     15139.34
        8110  0.001462886     1.020083 -0.0004192271     15158.55
        8115    0.0013394     1.018018 -0.0004215594     15177.29
        8120 0.0007303107      1.01604 -0.0004160694     15197.63
        8125 -0.001103293     1.014002 -0.0004152129     15219.17
        8130 5.116431e-05     1.011762 -0.0004171007     15241.68
        8135 0.0002913696     1.009714 -0.0004153465     15262.44
        8140 -0.0002979987     1.007698 -0.0004182135     15281.96
        8145 -3.458065e-05     1.005695 -0.0004226311     15303.54
        8150 -9.330935e-05     1.003398 -0.0004257781     15321.27
        8155 -6.783572e-05     1.001261 -0.0004244582     15345.04
        8160 -0.0001244618     0.999182 -0.0004204452     15363.74
        8165 -0.0002269435    0.9972054 -0.0004153033     15392.17
        8170 -0.0004273473    0.9949889 -0.0004162487     15409.18
        8175 0.0005948668    0.9929554 -0.0004311899     15432.33
        8180 0.0003140776     0.990857 -0.0004148838     15451.76
        8185 0.0006846854    0.9885816 -0.0004188466     15471.91
        8190 0.0002949797    0.9866912 -0.0004147479     15494.69
        8195 -0.0006995518    0.9845785 -0.000409349     15517.16
        8200 -0.0009728184     0.982562 -0.0004169634     15533.44
        8205 -0.0007655564    0.9803946 -0.0004182113     15556.64
        8210 -0.001107615     0.978352 -0.0004162746     15573.34
        8215  -0.00143628    0.9762143 -0.000409306      15594.6
        8220 -0.001139954    0.9742365 -0.0004075638     15617.59
        8225 -0.0008116195    0.9722085 -0.0003995833      15639.5
        8230 -0.0005246348    0.9702007 -0.0003953677      15659.7
        8235 -0.0001222514    0.9682226 -0.0003947429     15677.04
        8240 -0.0003446787    0.9663292 -0.0003864256     15699.95
        8245 -0.0001319198    0.9643137 -0.0003836588      15720.3
        8250  0.001579479    0.9624722  -0.00037809     15738.23
        8255 0.0008517706    0.9605494 -0.0003677398      15757.3
        8260 -0.0003548308    0.9587674 -0.0003648446     15778.24
        8265 -0.0007715517    0.9569589 -0.0003471345     15798.66
        8270 -0.0005413502    0.9551753 -0.0003425957     15820.72
        8275 0.0007848818    0.9536067 -0.0003300063     15836.13
        8280  0.001157754    0.9519155 -0.0003256489     15855.51
        8285 7.049096e-05    0.9503587 -0.0003127064     15866.82
        8290 0.0003918857    0.9486623 -0.000282912     15880.38
        8295  0.001541099    0.9473526 -0.000266396     15890.66
        8300   0.00255202    0.9463575 -0.0002048746     15820.42
      8300.2  0.002769743    0.9462809 -9.450603e-06     15810.56
      8300.4  0.002800726    0.9462489 -0.0003115747     15800.98
      8300.6  0.002792741     0.946299 -0.0001669375     15793.15
      8300.8  0.002799181    0.9461083 -0.0001692126     15787.19
        8301  0.002859401    0.9461473 -0.0001960873     15783.24
      8301.2  0.002875669    0.9461135 -0.0001125378     15780.15
      8301.4  0.002976721    0.9461422  -0.00024885     15778.77
      8301.6  0.003033849    0.9460182 -0.0002374381     15777.52
      8301.8  0.003092813    0.9459482 -0.0005254374     15776.47
        8302  0.003237665    0.9459236 -0.0004705377     15776.05
      8302.2  0.003225346    0.9457218 -0.0005866749     15775.14
      8302.4   0.00334836    0.9456418 -0.0005416496     15774.45
      8302.6  0.003346669    0.9454789 -0.0003615753     15772.46
      8302.8  0.003436444    0.9454902 -0.0004990996     15770.51
        8303  0.003499425    0.9454326 -0.0002908128     15766.96
      8303.2  0.003691445    0.9452425 -0.0004321748     15762.71
      8303.4  0.003904681    0.9452462 -0.0003329116     15756.88
      8303.6   0.00409147    0.9451445 0.0001334501      15748.9
      8303.8  0.004304016    0.9451662 0.0001703252     15739.39
        8304   0.00440366    0.9453493 0.0002520871     15726.77
      8304.2  0.004609512    0.9453825 7.171188e-05      15710.9
      8304.4  0.004855754    0.9453462 -0.0002407005     15689.37
      8304.6   0.00528066    0.9452236 -0.0005124377     15661.86
      8304.8  0.005836042    0.9451567 -0.0006252629     15625.93
        8305  0.006594382    0.9449726 -0.0008063501     15579.38
      8305.2  0.007298404     0.944846 -0.0008747748     15520.67
      8305.4   0.00799036    0.9445785 -0.0007533119     15450.55
      8305.6  0.008482725    0.9444569 -0.0004527487     15372.87
      8305.8   0.00853429    0.9443699  0.000214138     15295.44
        8306  0.008255457    0.9444838 0.0004602132      15224.2
      8306.2  0.007714033    0.9447498 0.0008071627     15165.81
      8306.4  0.007115018    0.9448251 0.0009306366        15125
      8306.6  0.006251893    0.9450156 0.0004919999     15103.26
      8306.8  0.005413146    0.9452283 0.0004534246     15103.21
        8307  0.004846695    0.9451434 0.0002464873     15122.77
      8307.2  0.004379536    0.9451878 0.0001674633     15156.61
      8307.4  0.003944871    0.9452128 0.0005566876     15198.99
      8307.6  0.003559473    0.9453623 0.0006317378     15250.01
      8307.8  0.003184248    0.9455888 0.0008048874     15306.18
        8308  0.002861436    0.9456932 0.0007687993     15365.26
      8308.2  0.002492175    0.9458567 0.0004213994      15425.4
      8308.4  0.002265384    0.9459773 0.0001007371     15489.15
      8308.6  0.002037696    0.9459259 -0.0001245381     15554.11
      8308.8  0.002049547    0.9457738 -0.0004476752     15618.82
        8309  0.002342433    0.9457571 -0.0005269376     15679.69
      8309.2  0.002619057    0.9456191 -0.0005689754     15729.11
      8309.4  0.003110015    0.9455044 -0.0007447501     15768.38
      8309.6  0.003608179    0.9453186 -0.0007928873     15794.56
      8309.8    0.0041542    0.9451613 -0.0006889116     15806.71
        8310  0.004417559    0.9449848 -0.0002349121     15807.62
      8310.2    0.0045627    0.9449532 -5.056193e-05     15802.23
      8310.4  0.004415889    0.9451307 0.0002367623     15794.18
      8310.6  0.004213448    0.9451209 0.0001528368     15787.95
      8310.8  0.003983205    0.9451742 -0.0001832753     15784.84
        8311  0.003751182    0.9450755 -0.0003250753     15786.22
      8311.2  0.003525275    0.9449841  -0.00049815     15792.73
      8311.4  0.003650899    0.9448608 -0.0004819496      15800.6
      8311.6  0.004003679    0.9447757 -0.0002767244     15803.62
      8311.8  0.004349129    0.9446899 2.225026e-05     15797.05
        8312  0.004337555    0.9447627 0.0001516882     15783.57
      8312.2  0.004291913    0.9448786 0.0005269875     15768.88
      8312.4  0.004349261    0.9448971 0.0005149244     15755.14
      8312.6  0.004125562    0.9451115 0.0002309122     15742.36
      8312.8  0.004051884    0.9451746 6.897437e-05     15733.82
        8313   0.00415596    0.9450633 -0.0002445878     15727.32
      8313.2  0.004663042    0.9449523 -0.0004182626     15717.14
      8313.4   0.00542268    0.9449159 -0.000458438     15695.54
      8313.6  0.006316506      0.94484 -0.0006849878     15659.11
      8313.8   0.00724538    0.9446966 -0.0008175871     15602.85
        8314  0.008243494    0.9444043 -0.0006310994     15529.68
      8314.2  0.008955742    0.9442618 -0.0003166859     15447.39
      8314.4  0.009235747    0.9443351 0.0004797763     15362.83
      8314.6   0.00903942    0.9444432  0.001154101     15285.52
      8314.8  0.008508887    0.9447881  0.001501788     15223.04
        8315  0.007705146    0.9451851   0.00169005     15179.01
      8315.2  0.006959051    0.9455366  0.001550249     15160.97
      8315.4  0.006332236    0.9457953    0.0011663     15167.09
      8315.6  0.005778485    0.9460283 0.0009806372     15189.51
      8315.8  0.005396427    0.9461181  0.000817237     15225.21
        8316  0.005138481    0.9463211 0.0005868752     15266.61
      8316.2    0.0051316    0.9464491 0.0006956495     15309.93
      8316.4  0.005188963    0.9464978 0.0004562374     15353.52
      8316.6   0.00503605    0.9466746 0.0004255754     15396.67
      8316.8  0.004880846    0.9466861  0.000634825      15440.3
        8317  0.004726801    0.9467895 0.0006462377     15485.22
      8317.2  0.004487987    0.9470057 0.0007312623     15529.47
      8317.4  0.004313664    0.9471916 0.0006505118      15574.2
      8317.6  0.004248324    0.9472711 0.0002859991      15618.9
      8317.8  0.004238227    0.9473099 -0.0001439629     15662.09
        8318  0.004280916    0.9472344 -0.0003522372     15702.86
      8318.2  0.004536034    0.9470764 -0.000208687      15738.6
      8318.4  0.004766001    0.9469893  4.64255e-05     15769.03
      8318.6  0.004909763     0.947143 0.0002953256     15794.08
      8318.8  0.005119396    0.9472716 0.0006021374     15816.11
        8319  0.005285175    0.9473127 0.0005530123      15834.3
      8319.2  0.005391845     0.947471 0.0004654129      15849.2
      8319.4  0.005381251    0.9475854 0.0006907248     15861.53
      8319.6  0.005511043    0.9476439 0.0005825628     15872.38
      8319.8   0.00553166    0.9478653 0.0007262253     15882.09
        8320  0.005623642    0.9479371  0.000867775     15891.17
      8320.2    0.0057368    0.9481664 0.0008722129     15899.06
      8320.4  0.005796289    0.9483381  0.001053425     15905.76
      8320.6  0.005962979    0.9485631 0.0009505751     15912.29
      8320.8  0.006041006    0.9487798 0.0009958375     15917.46
        8321  0.006181165    0.9489268 0.0009873249     15922.47
      8321.2  0.006421995    0.9491348 0.0009392754     15928.21
      8321.4   0.00657415    0.9493529  0.001149312     15932.81
      8321.6  0.006699428    0.9495312  0.001114513     15937.47
      8321.8  0.006786345    0.9498463    0.0011613      15942.1
        8322  0.006915626    0.9500264  0.001190175     15947.07
      8322.2  0.007118868     0.950282  0.001154463     15952.75
      8322.4  0.007278518    0.9504834  0.001252113     15958.55
      8322.6   0.00741731    0.9507699  0.001293801     15965.26
      8322.8  0.007466059    0.9510281  0.001549638      15971.5
        8323  0.007458295     0.951317   0.00159095     15978.49
      8323.2   0.00749375    0.9517231  0.001685875     15986.29
      8323.4  0.007382995    0.9520426  0.001719587     15993.41
      8323.6   0.00748696    0.9523768  0.001598937     16001.19
      8323.8  0.007579578    0.9526927  0.001496825     16008.81
        8324  0.007708362    0.9530022  0.001586388     16016.44
      8324.2  0.007876294    0.9532401  0.001679463     16022.46
      8324.4  0.008005644    0.9536459  0.001855563     16027.98
      8324.6   0.00817711    0.9540362  0.002149913     16032.36
      8324.8  0.008324323    0.9544867  0.002263938     16035.67
        8325   0.00846201      0.95496    0.0023547     16038.29
      8325.2  0.008598469    0.9554571  0.002582525     16040.96
      8325.4  0.008646887      0.95592  0.002760588     16042.46
      8325.6  0.008800643    0.9565527  0.002830138      16044.5
      8325.8  0.008888609    0.9571685  0.003121913     16045.65
        8326  0.009030562    0.9577212  0.003236538     16046.93
      8326.2  0.009123608    0.9584175  0.003604301     16048.13
      8326.4  0.009249107    0.9591419  0.004040801     16049.05
      8326.6  0.009386491    0.9600519  0.004346201     16050.41
      8326.8  0.009465388    0.9609538  0.004813751     16050.87
        8327  0.009774451    0.9618945  0.005119751     16052.33
      8327.2  0.009976106    0.9629929  0.005372813     16053.35
      8327.4   0.01002121    0.9641477  0.005605113     16053.66
      8327.6   0.01025831    0.9652521  0.005699876      16055.3
      8327.8   0.01054993    0.9663786  0.005964101      16056.4
        8328   0.01084471    0.9675528  0.006371014      16057.5
      8328.2   0.01113736     0.968919  0.006967101     16058.77
      8328.4   0.01129789    0.9703489  0.007540489     16059.55
      8328.6    0.0115692    0.9719523  0.008161502     16060.97
      8328.8   0.01185601    0.9735852  0.008979039     16061.52
        8329   0.01209465    0.9754482   0.00979424     16062.39
      8329.2     0.012454    0.9775321   0.01104805     16063.44
      8329.4   0.01279545    0.9797877   0.01250365     16063.87
      8329.6   0.01323746    0.9824236   0.01407505     16064.98
      8329.8   0.01360745    0.9854511   0.01645567     16066.19
        8330   0.01410606    0.9887922   0.01917916     16067.26
      8330.2   0.01456778    0.9929522   0.02228122     16068.37
      8330.4   0.01502852     0.997767   0.02612431     16068.87
      8330.6   0.01559177     1.003276   0.03034845     16069.57
      8330.8   0.01612974     1.009692   0.03641878     16070.17
        8331   0.01690378     1.017231   0.04417487      16071.2
      8331.2   0.01762322     1.026902   0.05409056     16071.43
      8331.4   0.01840232     1.038616   0.06582317     16071.61
      8331.6   0.01939515     1.052964   0.07817673     16072.18
      8331.8   0.02044993     1.069889    0.0917289     16072.64
        8332   0.02165073     1.089443     0.105448     16073.04
      8332.2   0.02320424     1.111999    0.1181371     16074.15
      8332.4   0.02504068     1.137322    0.1294149     16074.37
      8332.6   0.02709168     1.164399    0.1378183     16074.59
      8332.8   0.02937556     1.192975    0.1436114     16074.57
        8333   0.03185082     1.222254    0.1471646     16074.66
      8333.2   0.03444619     1.252212    0.1477651     16074.21
      8333.4   0.03726647     1.282131    0.1457026     16074.42
      8333.6   0.03997919     1.311187    0.1424981     16073.71
      8333.8    0.0424069     1.338816    0.1383916     16073.43
        8334   0.04460072      1.36621    0.1332825     16072.92
      8334.2   0.04651728     1.392844     0.127813     16072.42
      8334.4    0.0479303     1.417813    0.1204751     16072.67
      8334.6   0.04886748     1.441066    0.1115354     16072.69
      8334.8   0.04934952      1.46259    0.1028023     16072.23
        8335   0.04964706     1.482072   0.09423867     16073.09
      8335.2   0.04953887     1.500055    0.0859806     16072.71
      8335.4    0.0493205     1.516457    0.0778527     16073.06
      8335.6   0.04907332     1.531375   0.07011412      16072.8
      8335.8   0.04904935     1.544355   0.06278624     16073.95
        8336    0.0490756     1.556147   0.05644834     16074.47
      8336.2   0.04928693     1.566686   0.05163562     16075.35
      8336.4   0.04955409     1.576533   0.04768983      16075.6
      8336.6   0.05015563     1.585663   0.04460722     16076.33
      8336.8   0.05098736     1.594298     0.042259     16077.86
        8337   0.05194909     1.602372    0.0410368     16078.87
      8337.2   0.05314434     1.610341   0.04108098     16080.21
      8337.4   0.05441599     1.618493   0.04213898     16081.07
      8337.6   0.05600823     1.627163   0.04418428     16082.42
      8337.8   0.05774342     1.636083   0.04706722     16083.49
        8338   0.05975586     1.645688    0.0502181     16084.54
      8338.2   0.06196101     1.656146   0.05399997      16085.9
      8338.4   0.06420843     1.667338   0.05762292     16086.52
      8338.6   0.06691369     1.679283   0.06055028     16088.35
      8338.8   0.06966793     1.691786   0.06288899     16089.65
        8339   0.07285623     1.704587    0.0643345     16090.66
      8339.2   0.07633993     1.717649    0.0649657     16091.77
      8339.4   0.08015148     1.730751   0.06450916     16092.72
      8339.6   0.08436844     1.743759   0.06307448     16092.76
      8339.8   0.08908318     1.756194   0.06121126     16093.14
        8340   0.09447061     1.768109   0.05930832     16093.91
      8340.2    0.1005236      1.77972   0.05841231     16094.97
      8340.4    0.1073744     1.791205   0.05751325      16095.2
      8340.6    0.1155732     1.802924    0.0566534     16096.09
      8340.8    0.1247375     1.814119   0.05629875     16096.19
        8341    0.1347158     1.825042   0.05638857     16096.92
      8341.2    0.1462433     1.836244   0.05791249     16097.63
      8341.4    0.1593323     1.848035   0.06119676      16098.2
      8341.6    0.1741736     1.860449   0.06442024     16098.57
      8341.8    0.1908286        1.874   0.06800993     16098.94
        8342    0.2082515     1.887781   0.07180177     16099.82
      8342.2     0.226376     1.902442   0.07630666     16100.36
      8342.4    0.2449803     1.917891   0.08221056     16100.44
      8342.6    0.2651881     1.935045   0.08819506     16101.79
      8342.8     0.285295     1.953549   0.09398408     16102.54
        8343    0.3054192     1.972999   0.09897473     16103.64
      8343.2    0.3247345     1.993078     0.103233     16103.52
      8343.4    0.3438726     2.014225    0.1072038     16104.68
      8343.6    0.3624553     2.036136     0.110941     16105.09
      8343.8    0.3807736     2.058762    0.1142173     16105.79
        8344    0.3985664     2.081831     0.116756     16105.96
      8344.2    0.4163619     2.105599    0.1197564     16106.61
      8344.4    0.4340952      2.12954     0.122427      16106.5
      8344.6    0.4521786     2.154567    0.1252098      16107.3
      8344.8     0.470387     2.179772    0.1271848     16107.74
        8345      0.48883     2.205767    0.1287091     16107.76
      8345.2    0.5077597     2.231288    0.1308156     16108.46
      8345.4    0.5277982     2.257534     0.132544     16109.47
      8345.6    0.5485397     2.284425      0.13325     16109.92
      8345.8    0.5703031     2.311802    0.1334148     16110.73
        8346    0.5919155     2.337888     0.131964     16111.73
      8346.2    0.6142498     2.364266    0.1310681     16112.76
      8346.4    0.6368828     2.389996     0.130552     16114.18
      8346.6    0.6608659     2.416656    0.1290605     16115.31
      8346.8    0.6854209      2.44233    0.1261856     16115.93
        8347    0.7104507     2.467514    0.1205018     16117.35
      8347.2    0.7351996     2.490944    0.1149638     16117.53
      8347.4    0.7604791     2.513058    0.1095997     16118.32
      8347.6    0.7863935     2.534301    0.1033397     16119.18
      8347.8    0.8138729     2.555194   0.09604088     16119.43
        8348    0.8424627     2.573616   0.08798397     16120.32
      8348.2    0.8711021     2.589891   0.07762064      16120.5
      8348.4    0.9004116     2.604688   0.06817471     16119.97
      8348.6    0.9306093      2.61729   0.05903937     16120.66
      8348.8    0.9624406     2.628156   0.05009815     16120.49
        8349    0.9955514     2.637122   0.04207843     16120.07
      8349.2      1.02961     2.644767   0.03426597     16119.38
      8349.4     1.064762     2.650953   0.02775499     16118.85
      8349.6     1.101051     2.655569   0.02139113     16119.48
      8349.8     1.137782     2.659326   0.01642008     16118.82
        8350     1.174832     2.661879   0.01107898     16119.56
      8350.2     1.211989     2.664089  0.006879042     16119.47
      8350.4     1.248997     2.664432  0.002663618     16119.18
      8350.6     1.285411     2.664829 -0.001052905      16120.2
      8350.8     1.321102      2.66401 -0.003495918     16120.53
        8351     1.355631     2.663247 -0.006381517     16120.68
      8351.2     1.388779     2.661635 -0.008835053     16121.15
      8351.4     1.418743     2.659724  -0.01049299     16121.59
      8351.6     1.446643     2.656942  -0.01276975     16122.34
      8351.8     1.472851     2.654853   -0.0141342     16121.76
        8352     1.496447     2.651419  -0.01486024     16122.01
      8352.2     1.516778     2.648417   -0.0152724      16122.2
      8352.4     1.533943     2.645054  -0.01392256     16122.23
      8352.6     1.547474     2.642635  -0.01306536     16121.93
      8352.8     1.558461     2.640281  -0.01161949     16121.81
        8353     1.566158     2.637964  -0.01111807     16121.85
      8353.2     1.570205     2.635759 -0.008399019     16121.56
      8353.4     1.570244      2.63374 -0.005453366      16122.8
      8353.6     1.566597     2.633562 -0.000853878     16123.14
      8353.8     1.559372     2.633602  0.003885633     16124.13
        8354     1.547561     2.635075  0.007977873     16124.67
      8354.2     1.532258     2.636849   0.01326271     16125.05
      8354.4     1.514022     2.639944    0.0170677      16126.1
      8354.6      1.49282     2.644212   0.02238631     16126.89
      8354.8     1.469034      2.64873   0.02676234     16127.49
        8355     1.443502     2.654758   0.03037658     16127.96
      8355.2     1.416596     2.661354    0.0344341     16128.33
      8355.4      1.38929     2.668513   0.03681455     16129.44
      8355.6      1.36176     2.676277   0.03835203     16130.27
      8355.8     1.334273     2.684209   0.03993098     16130.46
        8356     1.307349     2.692036   0.04035794     16131.74
      8356.2     1.281345     2.700458   0.04004524     16132.93
      8356.4     1.256334     2.708563   0.04001338     16133.91
      8356.6     1.233137     2.716246   0.03777317     16134.99
      8356.8     1.210979     2.724046   0.03514777     16135.36
        8357     1.190339     2.730676   0.03109415     16136.02
      8357.2     1.171014     2.736681   0.02640018     16136.71
      8357.4     1.154402     2.741121   0.02253905      16138.4
      8357.6     1.138992     2.745167   0.01802443     16139.32
      8357.8     1.125095     2.748708   0.01367391     16140.18
        8358     1.112434     2.751101  0.008292227     16140.85
      8358.2     1.101112      2.75206  0.003065615     16141.39
      8358.4     1.090854       2.7518 -0.002087232     16142.24
      8358.6     1.082238      2.75116 -0.005766583     16143.33
      8358.8     1.074389     2.749431  -0.00952178     16144.27
        8359     1.067156     2.747447  -0.01222291     16144.85
      8359.2     1.060445     2.744183  -0.01503719      16145.4
      8359.4     1.054323     2.741382  -0.01850405     16146.27
      8359.6     1.048934     2.737401  -0.01997134     16147.39
      8359.8     1.043901     2.732644   -0.0224564     16148.51
        8360     1.039068     2.728206   -0.0229992     16148.85
      8360.2     1.034358     2.723417    -0.021884     16149.51
      8360.4     1.029676     2.719002  -0.02148805     16150.19
      8360.6     1.025154     2.715136  -0.02054666     16150.35
      8360.8     1.020832     2.711015  -0.02014524     16151.41
        8361     1.016564     2.706979  -0.01964025     16152.37
      8361.2      1.01221     2.702886  -0.01869761     16152.25
      8361.4      1.00796     2.699424  -0.01817892     16153.26
      8361.6     1.003892     2.696057  -0.01643223     16154.21
      8361.8     1.000002     2.692436  -0.01657541      16155.6
        8362    0.9958351      2.68974  -0.01671009     16155.17
      8362.2    0.9919338     2.686164   -0.0171507     16156.15
      8362.4    0.9881208     2.682689  -0.01815123     16157.16
      8362.6    0.9846456     2.678716  -0.01821567     16158.11
      8362.8    0.9815746     2.675219  -0.01775903     16159.56
        8363    0.9785322     2.671591  -0.01924035     16160.06
      8363.2    0.9757075     2.668482  -0.01994124     16161.32
      8363.4    0.9731699     2.663323  -0.02080149     16162.26
      8363.6    0.9709081     2.659266   -0.0235102     16162.94
      8363.8     0.969109      2.65495  -0.02284159     16163.84
        8364     0.967915     2.649674  -0.02403653     16164.75
      8364.2    0.9671639      2.64505  -0.02520225     16166.49
      8364.4    0.9668094     2.640037  -0.02464533     16167.71
      8364.6    0.9670827     2.634788  -0.02544138     16168.69
      8364.8    0.9677279     2.629958  -0.02356981     16169.22
        8365     0.968978     2.624697  -0.02332125     16170.32
      8365.2    0.9705663     2.621181  -0.02255141     16171.49
      8365.4    0.9727902     2.616131  -0.02106358     16172.35
      8365.6    0.9754022     2.611917  -0.02108776     16173.57
      8365.8    0.9785927     2.607846  -0.01854993     16175.13
        8366    0.9817914     2.604311  -0.01689461     16176.05
      8366.2    0.9851208     2.601291  -0.01463901     16176.76
      8366.4    0.9886138     2.598401  -0.01336556        16178
      8366.6    0.9923428     2.596135  -0.01162087     16179.54
      8366.8     0.995818     2.593618   -0.0101725     16179.78
        8367    0.9995261     2.591995 -0.009421448     16181.11
      8367.2      1.00319     2.590263 -0.008637662     16182.43
      8367.4     1.006578     2.588598 -0.008254384     16183.56
      8367.6     1.009775     2.586708 -0.006731824     16184.51
      8367.8     1.012697     2.585391  -0.00647526     16185.99
        8368     1.015107     2.584877 -0.005089137     16186.87
      8368.2     1.017272     2.583418 -0.005064726      16188.2
      8368.4     1.018993     2.582637 -0.005591161     16188.74
      8368.6      1.02038     2.581339 -0.004763675     16190.41
      8368.8     1.021128     2.580404 -0.004688599     16191.44
        8369     1.021483     2.579607  -0.00394205     16192.61
      8369.2     1.021236     2.578886 -0.003743673     16193.05
      8369.4     1.020785     2.578186 -0.002687072     16194.31
      8369.6     1.019712      2.57741 -0.001231848     16195.42
      8369.8     1.018213     2.577457 -5.877224e-05      16196.5
        8370     1.016258     2.577901  0.001323327     16196.64
      8370.2     1.014063     2.578139  0.002179826     16197.82
      8370.4     1.011544     2.578468  0.002739564     16198.76
      8370.6     1.008513     2.579201  0.003691814     16199.26
      8370.8     1.005204     2.580092  0.004481552     16200.17
        8371      1.00162     2.581092  0.005471403     16200.58
      8371.2    0.9978807     2.582053  0.006779652     16201.24
      8371.4    0.9941719     2.583578  0.007848916     16202.53
      8371.6    0.9902867     2.585516  0.009618528     16203.39
      8371.8    0.9863109     2.587371   0.01118829     16204.91
        8372    0.9819724     2.589748    0.0119845     16205.21
      8372.2    0.9776528     2.592529   0.01331198     16205.56
      8372.4    0.9733198     2.595104   0.01429353     16206.53
      8372.6    0.9688352     2.598021   0.01493956     16207.23
      8372.8    0.9643741     2.601183    0.0160325     16207.85
        8373    0.9599874      2.60448   0.01725057     16209.45
      8373.2     0.955379      2.60793   0.01854613     16209.57
      8373.4    0.9506874     2.611821   0.01996685     16209.78
      8373.6    0.9460658      2.61602   0.02040108     16210.93
      8373.8     0.941264     2.620454   0.02092425     16210.88
        8374    0.9364788      2.62425   0.02123515     16211.62
      8374.2    0.9316908     2.628561   0.02146088     16211.91
      8374.4    0.9268543     2.633008   0.02408439     16212.49
      8374.6    0.9221161     2.637622   0.02510458     16213.15
      8374.8     0.917138     2.643518   0.02610651     16213.99
        8375    0.9121944     2.648644    0.0264102     16214.48
      8375.2    0.9073768     2.653893   0.02533786     16215.14
      8375.4    0.9026391     2.658751   0.02599738     16215.01
      8375.6    0.8980008     2.663788   0.02632294     16215.76
      8375.8    0.8932918     2.669442   0.02798269     16216.47
        8376    0.8882115     2.674952   0.02840966     16216.34
      8376.2    0.8837817     2.681137   0.02859771     16217.41
      8376.4    0.8795127     2.686516   0.02891329     16218.45
      8376.6    0.8752185      2.69232   0.02869559     16219.35
      8376.8    0.8712475     2.698082   0.02988838     16220.69
        8377    0.8672665     2.704093   0.03035058      16221.5
      8377.2     0.863446     2.710427   0.03044669     16222.29
      8377.4    0.8600111     2.716601   0.03178634     16223.61
      8377.6    0.8566446      2.72244   0.03083759     16224.62
      8377.8     0.853252     2.729522   0.03046225      16225.2
        8378    0.8502147     2.735097   0.03085943     16226.17
      8378.2    0.8473913     2.740971   0.02835228     16226.58
      8378.4    0.8448054     2.747127   0.02870007     16226.96
      8378.6    0.8423468     2.752204   0.02846469     16228.12
      8378.8    0.8401639     2.758057   0.02775718     16228.53
        8379    0.8380744     2.763742   0.02822319     16229.14
      8379.2    0.8362343     2.769333   0.02781261     16231.05
      8379.4    0.8344472     2.774783   0.02689885     16231.54
      8379.6    0.8327099     2.780307    0.0262176     16232.32
      8379.8     0.831154     2.785261   0.02546832     16232.99
        8380    0.8298571     2.790307   0.02407456     16234.03
      8380.2    0.8286497     2.795157   0.02245204     16234.54
      8380.4    0.8277406     2.799567   0.02139418     16235.55
      8380.6    0.8269203     2.803223   0.01964875     16236.24
      8380.8     0.826141     2.807422    0.0185443     16236.59
        8381    0.8257413     2.810876   0.01762603     16237.96
      8381.2    0.8255263     2.814402   0.01539023     16239.08
      8381.4    0.8253642     2.817324   0.01357622     16239.25
      8381.6    0.8256171     2.819735   0.01134421     16240.65
      8381.8    0.8257668     2.821737  0.008650883     16240.33
        8382    0.8262318     2.823477   0.00664411      16241.5
      8382.2    0.8268919     2.824245  0.005246484     16242.15
      8382.4    0.8277496      2.82505  0.003457085     16242.82
      8382.6    0.8288945     2.825934  0.002097332     16244.24
      8382.8    0.8300388     2.826243 -0.0004821177     16244.77
        8383    0.8313207     2.825923  -0.00309573     16245.95
      8383.2    0.8328403     2.824664 -0.005370092     16246.76
      8383.4    0.8343036     2.823458  -0.00757759     16247.26
      8383.6      0.83597     2.821947 -0.008590153     16248.59
      8383.8    0.8376867      2.81986   -0.0102014     16249.65
        8384    0.8394414     2.817792  -0.01134663     16249.91
      8384.2    0.8411743     2.815297  -0.01300795     16250.69
      8384.4    0.8430335      2.81287  -0.01491128     16252.28
      8384.6    0.8446436     2.809454  -0.01721399     16252.08
      8384.8    0.8463012     2.805863  -0.01817645     16252.99
        8385    0.8477762     2.801526  -0.01937256     16253.17
      8385.2     0.849437     2.798328  -0.02035269     16253.74
      8385.4    0.8510188     2.793956  -0.02094688     16254.79
      8385.6    0.8525239     2.789581  -0.02301866     16255.17
      8385.8    0.8540101     2.784768  -0.02412503     16255.32
        8386    0.8554173     2.779914  -0.02558865     16256.26
      8386.2    0.8569461     2.774656  -0.02668409     16257.59
      8386.4    0.8584672      2.76911  -0.02793453     16257.74
      8386.6    0.8597829     2.763421  -0.02836949     16258.42
      8386.8    0.8609968     2.757566  -0.02924394     16259.15
        8387    0.8621905      2.75196  -0.03010348     16259.53
      8387.2    0.8634312     2.745715   -0.0309852     16260.71
      8387.4    0.8644319     2.739338  -0.03148943     16261.43
      8387.6    0.8653718     2.732778  -0.03155341     16262.27
      8387.8    0.8664581     2.726769  -0.03167156     16263.19
        8388    0.8675378     2.720472  -0.03036611     16264.28
      8388.2    0.8687027     2.714001  -0.03103119     16265.36
      8388.4     0.869866     2.708485  -0.03048989      16266.5
      8388.6    0.8709662     2.701944  -0.02966744     16267.08
      8388.8    0.8721134      2.69608  -0.02956989      16268.1
        8389    0.8732865     2.690267   -0.0284413     16268.68
      8389.2    0.8745877     2.684829  -0.02815638     16269.99
      8389.4    0.8759069     2.679191  -0.02676934      16270.6
      8389.6    0.8772594     2.673555  -0.02684179     16271.14
      8389.8    0.8787104     2.668851   -0.0260277     16271.57
        8390    0.8801808     2.663356   -0.0251927     16272.07
      8390.2    0.8816541     2.658369  -0.02562756      16271.5
      8390.4    0.8831045     2.653401  -0.02450054     16271.37
      8390.6    0.8846844     2.648349  -0.02331687     16271.95
      8390.8    0.8863327     2.643755  -0.02261594     16272.67
        8391    0.8879168     2.639715  -0.02182031     16272.64
      8391.2    0.8897688     2.635308  -0.02236267     16273.66
      8391.4    0.8915777     2.630893   -0.0220608     16274.46
      8391.6    0.8934617     2.625865   -0.0218538     16274.86
      8391.8    0.8953769     2.622067  -0.02119723     16275.83
        8392      0.89733     2.617825  -0.01938155     16276.02
      8392.2    0.8994113     2.613935  -0.01913047     16276.36
      8392.4    0.9018371      2.61036  -0.01882584     16278.34
      8392.6    0.9042587     2.606762  -0.01788627     16278.91
      8392.8    0.9068079     2.602764   -0.0176309     16280.11
        8393    0.9091398     2.599626  -0.01689447     16280.06
      8393.2    0.9116289     2.596255  -0.01574109     16280.57
      8393.4    0.9142701     2.593247  -0.01504171      16281.2
      8393.6    0.9170743     2.590172  -0.01387153     16282.25
      8393.8    0.9199724     2.587593  -0.01261707     16283.09
        8394    0.9228805     2.585158  -0.01181302     16284.22
      8394.2    0.9259806     2.583153  -0.01105257     16285.16
      8394.4    0.9291063     2.580721  -0.01067701        16286
      8394.6    0.9323387     2.578751 -0.009403586     16286.27
      8394.8    0.9356476     2.576616 -0.008629723     16286.26
        8395    0.9390557      2.57563 -0.007506773     16286.86
      8395.2    0.9424451     2.573817 -0.006575349     16287.33
      8395.4    0.9458364     2.572745 -0.006061784     16288.06
      8395.6    0.9491687     2.571356 -0.004416398     16289.01
      8395.8    0.9524897     2.570781 -0.003515011     16289.45
        8396    0.9558568     2.570284 -0.002889187     16290.28
      8396.2    0.9592478     2.569933 -0.002623848        16291
      8396.4    0.9626087     2.569045 -0.001702225     16292.06
      8396.6    0.9659731     2.568682 -0.001482473     16292.78
      8396.8    0.9693994     2.568922 -0.0005191744     16293.94
        8397    0.9728411     2.568747 -0.0002223875     16294.45
      8397.2    0.9762071     2.568629 -0.0002057382     16295.69
      8397.4    0.9795659     2.568504 -0.0005326622     16295.97
      8397.6    0.9827602     2.568758 -0.0003825981     16297.22
      8397.8    0.9860201     2.568321  0.000590635     16297.06
        8398    0.9892552     2.568323 -0.0006701484     16297.28
      8398.2    0.9924073     2.568976 0.0001338381     16298.45
      8398.4    0.9953664     2.568222 0.0004239723     16298.33
      8398.6    0.9983571     2.568428 -0.0009390737     16298.72
      8398.8     1.001255     2.568662 -0.0003132499     16299.03
        8399     1.004226     2.568225 -0.0002576651     16300.72
      8399.2     1.006878     2.567971  -0.00158115     16300.88
      8399.4     1.009523     2.568222 -0.001641814     16301.76
      8399.6     1.012097     2.567397 -0.002224771      16302.6
      8399.8     1.014694     2.566911 -0.003388692     16302.86
        8400     1.017353     2.566411 -0.003354636      16303.5
        8401     1.030707     2.563547 -0.003134768     16306.68
        8402     1.044482     2.559491 -0.002677152     16309.91
        8403     1.058964     2.556821 -0.001820054     16313.18
        8404     1.073194     2.555703  9.18499e-05     16317.44
        8405     1.085698     2.556267  0.002308706     16321.54
        8406     1.095174     2.559859  0.004363663     16325.61
        8407     1.101286     2.566056  0.006220105     16329.87
        8408      1.10369     2.573158  0.006876213     16334.87
        8409     1.102281     2.581147  0.006728797     16338.95
        8410     1.098139     2.587363     0.006449     16343.64
        8411     1.092173     2.592971  0.005938123     16347.59
        8412     1.085413     2.598954  0.006276176     16351.05
        8413     1.078026       2.6049  0.007281079     16355.13
        8414     1.070694     2.612468  0.008665962     16360.09
        8415     1.063295     2.622095   0.01013915     16364.26
        8416     1.056009     2.633617   0.01106204     16368.15
        8417     1.049099     2.645456   0.01126773     16373.02
        8418     1.042239     2.656716   0.01103858     16378.72
        8419     1.035326     2.667166   0.01073532     16382.77
        8420     1.028193     2.677772   0.01070089     16385.69
        8421     1.021445     2.688398   0.01102787     16389.53
        8422     1.015046      2.69952   0.01161665     16393.39
        8423     1.008932     2.711278   0.01254288     16396.27
        8424     1.003422     2.724238   0.01339778     16399.16
        8425    0.9983175     2.738569   0.01401465     16401.41
        8426    0.9932697     2.753111   0.01418554     16402.34
        8427    0.9884769     2.767336   0.01357937     16405.43
        8428    0.9844147      2.78098   0.01236996     16409.43
        8429    0.9810616     2.792887    0.0102126      16413.1
        8430    0.9782626     2.802591  0.007439614     16416.34
        8431      0.97641     2.808187  0.004103806     16421.09
        8432    0.9754927     2.810739  0.000261247     16426.21
        8433    0.9757862     2.809302 -0.003514128      16430.1
        8434    0.9766364     2.803636 -0.007388056     16433.86
        8435    0.9778717      2.79413  -0.01049091     16437.44
        8436    0.9797863     2.781187  -0.01316555     16441.28
        8437    0.9820228     2.767338  -0.01474896     16443.93
        8438    0.9842083     2.750974  -0.01584451     16447.12
        8439    0.9857741     2.735134  -0.01679885     16451.69
        8440    0.9871409     2.717809  -0.01709822     16457.17
        8441    0.9882352     2.700143  -0.01737148     16461.98
        8442    0.9891565     2.682581    -0.016866     16465.96
        8443    0.9900237     2.665648  -0.01607928     16470.04
        8444    0.9905037     2.650345  -0.01480242      16473.2
        8445    0.9909682     2.635826  -0.01327822     16476.25
        8446    0.9916125     2.623371  -0.01200749     16479.28
        8447    0.9922336     2.612536  -0.01109668     16481.56
        8448    0.9928144     2.602315  -0.01117404     16485.83
        8449    0.9931398     2.591439  -0.01199815     16490.86
        8450    0.9934413     2.578675  -0.01327984     16495.47
        8451    0.9937488     2.564543  -0.01469017     16499.81
        8452    0.9938286     2.549195  -0.01547013     16504.31
        8453    0.9938888     2.532678  -0.01561039     16508.23
        8454    0.9934403     2.516794  -0.01526323     16511.04
        8455    0.9935309     2.502101  -0.01390093     16513.75
        8456    0.9939338     2.488142  -0.01194271     16518.37
        8457    0.9943514     2.477075 -0.009608493     16522.37
        8458    0.9949544     2.469024  -0.00655107     16526.32
        8459    0.9958306     2.463667 -0.003554649     16530.27
        8460    0.9961029     2.461938 -0.0005413409      16532.9
        8461     0.996355     2.462856  0.002219888      16537.6
        8462    0.9961685     2.466858  0.004629228     16541.59
        8463     0.995783     2.472547  0.006725435     16544.59
        8464    0.9950282     2.480455  0.008289803     16547.58
        8465    0.9935957     2.489758  0.009645617     16551.39
        8466    0.9911483     2.500017   0.01056936     16554.97
        8467    0.9881578     2.511129   0.01104514     16559.07
        8468    0.9841782     2.522732   0.01139839     16562.32
        8469    0.9792555     2.533938   0.01126292     16565.63
        8470    0.9736933     2.545611   0.01062409     16568.65
        8471    0.9680924     2.556181  0.009559775     16571.51
        8472     0.962682     2.565229  0.007929112     16574.22
        8473    0.9582155     2.572177   0.00601973     16578.46
        8474    0.9546853     2.577327   0.00395587     16582.64
        8475    0.9522229      2.58026   0.00186639     16586.06
        8476    0.9509126     2.581052 6.721192e-05     16589.01
        8477    0.9510533     2.579643 -0.001328388     16591.42
        8478     0.952422     2.577596 -0.002328036     16594.19
        8479    0.9546102     2.574946 -0.002452897     16596.81
        8480    0.9585174      2.57174 -0.001940731     16602.41
        8481    0.9631551     2.569831 -0.0006279642     16608.72
        8482    0.9681573     2.569833  0.001584909     16613.87
        8483    0.9735666     2.572435  0.004549713     16618.35
        8484     0.979201      2.57808  0.007831098     16622.93
        8485    0.9850182      2.58803   0.01145007      16624.6
        8486    0.9906559     2.601158   0.01500346     16626.12
        8487    0.9963477     2.618235   0.01756189     16630.13
        8488     1.001653     2.638094   0.01908688     16633.91
        8489      1.00697     2.658278   0.01955197     16637.57
        8490     1.011615     2.677505   0.01882202     16641.12
        8491     1.015528     2.696443   0.01751476     16645.91
        8492      1.01871     2.713382   0.01570179     16651.33
        8493     1.021048     2.728337   0.01325978        16656
        8494     1.022434     2.740312   0.01065506     16659.08
        8495      1.02272     2.749482   0.00805011     16661.19
        8496       1.0226     2.756002   0.00563879     16664.06
        8497     1.022291     2.760537  0.003702293        16668
        8498     1.022188     2.762868  0.002184559     16670.47
        8499     1.022204     2.764291 0.0006058214     16672.35
        8500     1.022171      2.76474 -0.0007841555     16676.49
        8501     1.022218     2.762961 -0.002255439     16681.65
        8502     1.022331     2.759731 -0.004297741     16686.08
        8503     1.022845     2.755269 -0.006180562     16690.79
        8504     1.023942     2.747549 -0.008310882     16694.28
        8505     1.025669     2.738238  -0.01068852      16698.4
        8506     1.027537     2.726487  -0.01274839     16702.41
        8507     1.029272     2.712515  -0.01477072        16705
        8508     1.030893     2.696556  -0.01658142     16708.31
        8509     1.032602     2.679155  -0.01843376     16711.39
        8510     1.034344     2.660162  -0.02015947      16715.3
        8511     1.036047      2.63878  -0.02143275     16719.31
        8512      1.03815     2.615918  -0.02256667     16724.26
        8513     1.040204     2.593424  -0.02324677     16728.39
        8514     1.043613     2.569895  -0.02369415     16729.87
        8515     1.047681     2.545793  -0.02426387     16718.67
        8516     1.050042     2.521141  -0.02421618     16696.53
        8517     1.049662     2.496369  -0.02364056     16685.56
        8518     1.047493      2.47303  -0.02228532     16683.54
        8519     1.045823     2.451231  -0.02009909     16685.29
        8520     1.043915        2.432  -0.01757413     16688.11
        8521     1.042732     2.415973  -0.01463488     16692.38
        8522     1.040561     2.402734  -0.01136062     16696.47
        8523     1.037298     2.392691 -0.007986001     16699.68
        8524     1.033855     2.386557 -0.004448859     16705.67
        8525     1.030337     2.384029 -0.0007937657     16708.71
        8526     1.027455     2.384938  0.002444789     16711.06
        8527      1.02486     2.389516  0.005448349     16715.56
        8528     1.021351     2.396337  0.008071983     16723.52
        8529     1.016722     2.405822   0.00991078     16730.06
        8530     1.011736     2.417226   0.01138929     16732.15
        8531     1.007688     2.429159   0.01230992      16734.8
        8532      1.00432     2.441894   0.01266033     16738.75
        8533    0.9998463     2.455062   0.01293295     16743.08
        8534    0.9949626     2.467868   0.01258084     16746.14
        8535    0.9889238     2.480891   0.01196999     16750.59
        8536    0.9840904     2.492217   0.01111942     16752.81
        8537    0.9804748     2.502942   0.01003217     16755.85
        8538    0.9768044     2.512345  0.009092516     16755.51
        8539     0.974317      2.52102  0.007786808     16757.42
        8540    0.9735829     2.528587  0.006543471     16765.88
        8541    0.9741318     2.534089  0.005126297     16770.75
        8542    0.9751008     2.538519  0.003522583     16772.07
        8543    0.9765665     2.541525  0.002201722     16778.06
        8544    0.9787519     2.542678  0.000931992     16783.81
        8545    0.9807192     2.542896 -0.0002274993     16787.17
        8546    0.9816897     2.542247 -0.0009737117     16790.24
        8547    0.9827197     2.540615 -0.001528278     16793.58
        8548    0.9842364     2.538783 -0.001991353     16797.88
        8549    0.9869787     2.536783  -0.00236598     16802.62
        8550    0.9897235     2.534282 -0.002681521     16806.82
        8551    0.9920105     2.531151 -0.002905257     16812.98
        8552    0.9945004     2.528057 -0.003115486     16813.54
        8553    0.9976261     2.525162 -0.003139016     16816.43
        8554     1.000957      2.52182 -0.003357337     16820.74
        8555     1.002968     2.518595 -0.003635426      16824.3
        8556     1.003852     2.514627  -0.00384968     16827.82
        8557     1.004771      2.51062 -0.004247313     16832.39
        8558     1.006396     2.506421 -0.004362593     16837.35
        8559     1.009311     2.501606 -0.004223143     16840.05
        8560     1.011509     2.497177  -0.00382989     16841.09
        8561     1.011529     2.493727 -0.003052295     16843.61
        8562     1.011569     2.491102 -0.001903559     16849.29
        8563     1.010963     2.489397 -0.0004312578     16853.72
        8564     1.010526     2.489563  0.001303645     16856.99
        8565     1.010821     2.492002  0.003166984     16860.73
        8566     1.011527     2.496316   0.00500574     16866.99
        8567     1.012033     2.502065  0.006657072     16869.81
        8568      1.01164     2.509586  0.008022646     16870.17
        8569     1.010572      2.51863  0.009127129     16874.39
        8570     1.011137     2.528407  0.009468231     16879.85
        8571      1.01235     2.538573  0.009411951     16886.91
        8572     1.012911     2.547459   0.00895776     16894.75
        8573     1.013343     2.556278  0.008308039     16900.46
        8574     1.014462     2.564238  0.007770391     16903.26
        8575     1.015149     2.571805  0.007034371     16905.35
        8576      1.01553      2.57854  0.006092616     16910.16
        8577     1.016408     2.584416  0.005140656     16914.43
        8578     1.017965     2.588608  0.004302712     16919.61
        8579     1.019263     2.592368  0.003276442     16925.35
        8580     1.020105     2.595751  0.002449046     16929.33
        8581     1.020562     2.597522  0.001449787     16933.46
        8582      1.01948     2.598404 0.0003180781     16938.46
        8583     1.018768     2.598167 -0.0006874684     16942.81
        8584     1.018783     2.597023 -0.001808097      16944.6
        8585     1.018109     2.594772 -0.002931107      16945.4
        8586     1.017679     2.591172 -0.004136088     16947.77
        8587     1.017911     2.586443 -0.005318056     16949.54
        8588     1.017789     2.580479 -0.006566746     16950.13
        8589      1.01781     2.573499 -0.007749823     16954.57
        8590     1.016965     2.564905 -0.008776679     16962.08
        8591     1.016484     2.555443  -0.00978441     16966.82
        8592     1.016033     2.545372  -0.01066466     16967.17
        8593     1.015539     2.534362   -0.0112348     16967.08
        8594     1.016138     2.522246  -0.01160222     16970.99
        8595     1.016952     2.510504  -0.01176836     16975.06
        8596     1.015005     2.498963   -0.0114834     16977.81
        8597     1.012145     2.487288  -0.01115079     16980.54
        8598     1.009294     2.476313  -0.01091795     16982.39
        8599     1.006867     2.465901  -0.01045875     16986.07
        8600     1.005561     2.455292 -0.009863287     16992.34
        8601     1.004084     2.445453 -0.009221308     16996.03
        8602     1.003197      2.43686 -0.008232846     16997.29
        8603     1.002864     2.429016 -0.007325807     17001.02
        8604     1.001495      2.42236 -0.006423132      17007.8
        8605    0.9996679      2.41615 -0.005468142     17014.59
        8606    0.9982291     2.411167 -0.004532974      17017.6
        8607    0.9970079     2.407143 -0.003502178     17022.39
        8608    0.9960643     2.404228 -0.002573574     17026.79
        8609    0.9954403     2.402141 -0.001895565     17030.02
        8610    0.9951701     2.400873 -0.001344652     17033.59
        8611    0.9946333     2.399561 -0.0008318954     17037.18
        8612    0.9941504      2.39885 -0.0004932754     17042.48
        8613    0.9937884     2.398814 -0.0001945564     17044.66
        8614    0.9938104       2.3989 3.952602e-05     17046.74
        8615    0.9937856     2.398783 4.419643e-05     17051.03
        8616    0.9929015     2.399008 -6.467496e-05     17053.31
        8617    0.9921246     2.398991 -1.119907e-05     17054.46
        8618    0.9920682     2.398641 -0.0001666745     17056.49
        8619    0.9920084     2.398738 -0.0002445025     17057.44
        8620     0.992385     2.398341 -0.0002254441     17056.57
        8621    0.9929255     2.398013 -0.0004440719     17052.23
        8622    0.9936494     2.397739  -0.00028798      17031.2
        8623    0.9945915     2.396962 -0.0002878904     16947.55
        8624    0.9944551     2.397189 -0.0001498604     16814.87
        8625    0.9949469     2.396861 -5.588508e-05     16843.28
        8626    0.9942112      2.39714 -0.0001645029     16902.21
        8627    0.9956638     2.396738 -3.969031e-06     17051.95
        8628    0.9969132     2.396531 -1.058239e-05     17090.89
        8629    0.9986672     2.396845 0.0002739391     17100.11
        8630    0.9999311     2.397097 0.0005777521     17105.87
        8631     1.000262     2.397834 0.0008366611     17112.17
        8632      1.00056     2.398842  0.001164574     17117.03
        8633     1.000594     2.400192  0.001447806     17119.89
        8634     1.000941     2.401756  0.001730728     17121.56
        8635     1.001342     2.403625  0.001907281     17126.02
        8636     1.001821     2.405765   0.00209228     17131.48
        8637     1.002441     2.407821   0.00221353     17136.81
        8638     1.003077     2.410125  0.002255056     17139.66
        8639     1.003259     2.412479  0.002225339     17141.58
        8640     1.002988     2.414785  0.002117638     17143.94
        8641     1.002957     2.416722  0.001963515     17146.21
        8642     1.002937     2.418595  0.001817968     17148.27
        8643     1.003007     2.420333  0.001728271     17150.21
        8644      1.00384     2.422057  0.001572768     17153.93
        8645     1.004382     2.423635  0.001431912     17156.21
        8646     1.003974     2.424886  0.001240781     17161.33
        8647     1.003902     2.426061  0.001057546     17166.43
        8648     1.004281      2.42702  0.000961115     17170.46
        8649     1.005177     2.427866  0.000917897     17175.23
        8650     1.006476     2.428731 0.0008551524     17180.62
        8651      1.00734     2.429732 0.0007142135     17185.78
        8652     1.008129     2.430441  0.000610817     17190.95
        8653      1.00932     2.430722  0.000547273      17193.9
        8654     1.010619     2.431174 0.0006476506     17196.39
        8655     1.012334     2.431921 0.0008552886     17200.64
        8656     1.013582     2.433031  0.001036821     17206.08
        8657     1.013412     2.434144  0.001156487     17209.29
        8658     1.013598     2.435321  0.001204701      17212.4
        8659     1.014475     2.436547  0.001197908     17215.73
        8660     1.015272      2.43785  0.001276436     17218.34
        8661     1.014727     2.438935   0.00140857     17220.95
        8662     1.013804     2.440427  0.001550424     17224.18
        8663     1.013152     2.442182  0.001603334     17228.51
        8664     1.012748     2.444052  0.001558764      17231.1
        8665      1.01257     2.445349  0.001390111     17232.47
        8666     1.012206     2.446662  0.001214116      17233.6
        8667      1.01168     2.447742 0.0009942353     17238.23
        8668     1.010985     2.448908 0.0006117954     17242.21
        8669     1.009872     2.449326 0.0001907547     17245.62
        8670     1.008622     2.449109 -0.0004166972     17250.14
        8671     1.007867     2.448505 -0.0008442322     17255.14
        8672      1.00696     2.447242 -0.001322712     17257.17
        8673     1.004962     2.445949 -0.001836563     17259.83
        8674     1.002648     2.443819 -0.002221962     17264.52
        8675     1.000757     2.441159 -0.002763281     17266.55
        8676    0.9991134     2.438354 -0.003099983     17269.06
        8677    0.9974958     2.434895   -0.0033796     17272.64
        8678    0.9967769     2.431419 -0.003676862     17277.29
        8679    0.9965819     2.427641 -0.003958448     17283.44
        8680    0.9957363     2.423646 -0.004286201     17286.17
        8681    0.9939459     2.419062 -0.004442069     17288.56
        8682    0.9919891     2.414274  -0.00457001     17293.14
        8683    0.9906765     2.409872 -0.004582247     17296.74
        8684    0.9902572     2.405366 -0.004555419     17299.52
        8685    0.9902428     2.400733 -0.004637421     17300.21
        8686    0.9902808     2.396052 -0.004507484     17301.89
        8687    0.9906017     2.391323 -0.004235663     17304.35
        8688    0.9909557     2.387336 -0.004037239     17306.43
        8689    0.9906694      2.38379 -0.003599677     17309.99
        8690    0.9907045     2.379903  -0.00328024     17314.27
        8691    0.9910345     2.376924 -0.002900276     17317.28
        8692    0.9911712     2.374215 -0.002354228     17320.64
        8693    0.9910342     2.372189 -0.001936349     17324.47
        8694    0.9909799     2.370486 -0.001495127      17329.7
        8695    0.9908544     2.369178 -0.001141137     17332.66
        8696    0.9909966     2.368235 -0.0008891314     17336.48
        8697    0.9910291     2.367624 -0.0006213534     17336.18
        8698    0.9909597      2.36693 -0.000456234     17324.04
        8699    0.9904991     2.366693 -0.0003954125     17311.74
        8700    0.9906024      2.36641 -0.0003670561     17317.23
        8701    0.9906773     2.366043 -0.0005373886     17328.79
        8702    0.9904654     2.365462 -0.0007144741     17342.22
        8703    0.9901405     2.364543  -0.00105922     17350.71
        8704    0.9899062     2.363552 -0.001500966     17355.79
        8705    0.9904066     2.361806 -0.001783556     17356.28
        8706    0.9912124     2.359458  -0.00226688     17348.02
        8707    0.9911908     2.357409 -0.002617191      17338.4
        8708    0.9906769     2.354485 -0.002871919     17343.77
        8709     0.989839     2.351337 -0.003383557     17353.39
        8710    0.9895377      2.34797 -0.003720079     17365.02
        8711    0.9896794     2.343875  -0.00393627     17374.32
        8712    0.9896836     2.339604 -0.003942612        17380
        8713    0.9900738     2.335592 -0.003808863     17385.05
        8714     0.990195       2.3322 -0.003476897     17387.75
        8715    0.9903349      2.32864 -0.003167089     17393.15
        8716    0.9898533     2.325697 -0.002903718     17397.75
        8717    0.9897534     2.322924 -0.002360642     17401.12
        8718    0.9899202     2.320585  -0.00184695     17405.03
        8719    0.9902503     2.319197 -0.001436954     17410.79
        8720    0.9905166     2.318309 -0.001017947     17415.69
        8721    0.9910197     2.317176 -0.0008101165     17418.64
        8722    0.9921357     2.316513 -0.0007198584     17419.77
        8723    0.9929316     2.315957 -0.0004669305     17422.19
        8724    0.9928589     2.315429 -0.000458924     17426.01
        8725     0.992709     2.315308 -0.0004609905      17429.8
        8726    0.9931399     2.314677 -0.0004480941     17432.86
        8727    0.9936964     2.314113   -0.0005805     17437.05
        8728     0.994408     2.313637 -0.000494052     17441.15
        8729    0.9953483     2.312986 -0.0003942725     17444.16
        8730    0.9961619     2.312701 -0.0003122029     17446.19
        8731    0.9966558     2.312535 -0.000164826     17447.94
        8732    0.9969139     2.312388 -0.000232188     17451.39
        8733    0.9972347     2.312327  -0.00015092     17457.12
        8734    0.9982441     2.311772 -0.000114385     17462.74
        8735    0.9996149     2.311932 -0.0001297194     17466.24
        8736     1.000894     2.311931 8.879905e-05     17468.73
        8737     1.002164     2.311808  0.000188624     17471.87
        8738     1.003513     2.312127 0.0002039446     17476.63
        8739     1.004303     2.312686  0.000344177     17481.34
        8740     1.005207     2.312746 0.0003702955     17484.36
        8741     1.005631     2.313185 0.0003139795      17485.5
        8742     1.005459     2.313609  0.000384664     17486.47
        8743     1.005144     2.313942 0.0003957285     17489.68
        8744     1.005232     2.314285  0.000389371     17492.13
        8745       1.0054     2.314768  0.000422072     17496.27
        8746      1.00564     2.315166 0.0004174676     17499.56
        8747      1.00598      2.31563  0.000516647     17500.83
        8748     1.005949     2.315955 0.0005053125     17501.73
        8749     1.005877     2.316834 0.0005855425     17503.59
        8750     1.006115     2.317187 0.0005846139     17507.25
        8751     1.006871     2.317973    0.0004892     17511.24
        8752     1.007455     2.318293 0.0005369284     17513.43
        8753     1.007515     2.318791  0.000414953      17516.4
        8754     1.007523     2.319335  0.000455426        17522
        8755     1.007304     2.319632 0.0004171925     17524.42
        8756     1.007251     2.320115  0.000373433     17527.53
        8757     1.006823      2.32046  0.000337035     17530.76
        8758      1.00624     2.320829 0.0002747635     17532.83
        8759     1.005266     2.320981 0.0002351385     17534.64
        8760      1.00432     2.321214  0.000162121     17539.21
        8761     1.003285       2.3214 0.0001933645     17544.31
        8762     1.001689     2.321477 0.0002439264     17549.44
        8763    0.9998646     2.321754 0.0001566215     17553.56
        8764     0.998598      2.32219   0.00021641     17556.68
        8765    0.9977398     2.322027 0.0001813839     17558.46
        8766    0.9969393     2.322343 4.213605e-05     17561.88
        8767    0.9961557      2.32248  0.000117518     17564.14
        8768    0.9951825     2.322358 2.951196e-05     17566.04
        8769    0.9943107     2.322497 -3.308947e-05     17570.44
        8770    0.9937579     2.322461 1.152497e-05     17572.89
        8771    0.9933241     2.322347 -5.813452e-05      17576.5
        8772    0.9925546     2.322405 -0.000116412     17579.23
        8773    0.9917321     2.322264 -0.0002087751     17582.45
        8774    0.9914815     2.321995 -0.0003778206     17586.21
        8775    0.9917417     2.321512 -0.0005690976     17589.45
        8776    0.9918214     2.320893 -0.0007496336     17591.71
        8777    0.9914304     2.319988 -0.000919186     17593.61
        8778    0.9910838     2.318997 -0.001017215     17595.26
        8779    0.9909415     2.317835 -0.001182487     17596.77
        8780    0.9907362     2.316824 -0.001275981     17598.93
        8781    0.9910176     2.315258 -0.001421225     17603.05
        8782    0.9915667     2.313893 -0.001694706     17607.38
        8783    0.9918748     2.312151 -0.001800609     17610.23
        8784     0.992704     2.310046 -0.002100354     17612.07
        8785    0.9934827     2.308056 -0.002240763     17613.46
        8786    0.9939339     2.305491 -0.002307628     17616.37
        8787    0.9939685     2.303187 -0.002514792     17618.46
        8788    0.9942721     2.300815  -0.00249086     17619.02
        8789    0.9949139     2.297996 -0.002531721     17620.61
        8790    0.9953768     2.295528 -0.002620366     17624.91
        8791    0.9954905     2.293061 -0.002561062     17629.11
        8792    0.9949974     2.290334 -0.002557941     17633.65
        8793    0.9942557     2.287752 -0.002580084     17637.36
        8794    0.9934887     2.285296 -0.002424852     17639.85
        8795     0.993106      2.28274  -0.00225582     17641.83
        8796    0.9931152     2.280634 -0.002167008     17644.32
        8797    0.9932146     2.278729 -0.001881073     17645.94
        8798    0.9933947     2.276628 -0.001804684      17647.4
        8799    0.9933041     2.275216 -0.001684583     17649.48
        8800    0.9932715     2.273415 -0.001491055     17651.74
        8801    0.9927676      2.27199 -0.001356979     17654.25
        8802    0.9922019     2.270664 -0.001055505     17657.37
        8803    0.9919528     2.269788 -0.0009615114     17659.86
        8804    0.9920871     2.269193 -0.0008499565     17663.56
        8805    0.9926429     2.268144 -0.000821066     17666.98
        8806    0.9931131     2.267264 -0.0007566614     17669.37
        8807    0.9932311     2.266504 -0.0006235255     17672.41
        8808    0.9933587     2.266167 -0.0005339389     17675.52
        8809    0.9936256      2.26565 -0.000412762     17678.19
        8810    0.9940778     2.265128 -0.000440928     17681.11
        8811     0.994504     2.264853 -0.000476573     17684.59
        8812     0.994627     2.264403 -0.000514941     17686.43
        8813    0.9950952     2.263744 -0.0006355166     17687.61
        8814    0.9954364     2.263069 -0.0008189935     17690.85
        8815    0.9955518     2.262311 -0.0007475935     17695.16
        8816    0.9955977     2.261127 -0.000724935     17698.72
        8817    0.9953115     2.260754 -0.0007181254     17701.72
        8818    0.9948116     2.260169 -0.0006371666     17704.55
        8819    0.9941475     2.259438 -0.0008933771     17707.09
        8820    0.9936453     2.258578 -0.001051138        17708
        8821    0.9934836      2.25718 -0.001137074     17709.52
        8822    0.9930997     2.255964 -0.001255497     17709.75
        8823    0.9928806      2.25489   -0.0012403     17709.24
        8824    0.9924834     2.253556 -0.001353008     17708.03
        8825    0.9925606     2.252219 -0.001522271     17707.51
        8826     0.993015     2.250552 -0.001652793      17705.1
        8827    0.9936157     2.248801 -0.001706813     17701.33
        8828    0.9939955     2.246945 -0.001712331     17692.02
        8829    0.9945137     2.245392 -0.001932022     17673.88
        8830    0.9956598     2.243703 -0.001795968     17628.05
        8831     0.998559     2.241073 -0.001540173     17486.97
        8832     1.000771     2.239761 -0.001747539     17227.03
        8833    0.9971559     2.239231 -0.001277216     17215.85
        8834    0.9996082     2.236713  -0.00120944     17340.97
        8835    0.9993103     2.235964 -0.001631592     17245.53
        8836    0.9961173     2.234924 -0.001449624     17470.69
        8837    0.9987367     2.232705 -0.001499493     17705.07
        8838    0.9999931     2.230914 -0.001482985     17761.12
        8839     1.000403     2.229966 -0.001259055     17774.77
        8840     1.000527     2.228992 -0.001064223     17780.49
        8841     1.000952     2.227668 -0.001119053     17784.27
        8842     1.001529     2.226657  -0.00112574     17787.36
        8843     1.001474      2.22549 -0.001129418     17789.78
        8844      1.00147     2.224489  -0.00112177     17793.19
        8845     1.001763     2.223151 -0.001127761     17795.74
        8846     1.001974      2.22217 -0.001147405     17797.18
        8847     1.001754     2.220979 -0.001121999     17799.57
        8848     1.001476     2.219899 -0.001143572     17803.33
        8849     1.001531     2.218663 -0.001034938     17807.57
        8850     1.001549     2.217596 -0.001072014     17811.51
        8851     1.001475     2.216839 -0.0009640635     17813.46
        8852     1.001743     2.215611 -0.0009343515     17815.33
        8853     1.002215     2.214807 -0.0009219809     17816.84
        8854     1.002389     2.213859 -0.0008177055     17819.27
        8855     1.002136     2.213151 -0.0008249945     17822.33
        8856      1.00146      2.21234 -0.0007903315     17824.74
        8857     1.000763     2.211507 -0.000708061     17827.01
        8858     1.000318     2.210697 -0.0006438955     17828.39
        8859     1.000107     2.210319 -0.0005260739      17832.1
        8860    0.9998436     2.209765 -0.000409727     17836.23
        8861    0.9994736     2.209402 -0.0004464915     17842.11
        8862    0.9993714     2.209058 -0.000364707     17848.15
        8863    0.9994044     2.208533 -0.0003083195     17851.42
        8864    0.9994831     2.208306 -0.000276394      17853.4
        8865    0.9995159     2.208169 -0.000222649     17854.41
        8866     0.999712     2.207953 -0.0001393859     17856.44
        8867    0.9999283     2.207642 -3.350402e-05     17857.88
        8868     1.000096     2.207748 -3.804992e-05     17859.57
        8869    0.9996555     2.208035 0.0001110595     17861.69
        8870    0.9990839     2.207801 3.720196e-05     17864.64
        8871    0.9987431     2.208086 -2.022446e-05     17868.79
        8872    0.9985826     2.207897 2.843745e-05     17872.86
        8873    0.9986757     2.207954 -3.633643e-05     17876.47
        8874    0.9988969     2.207914 0.0001085475      17880.1
        8875    0.9994487     2.207941  0.000157676     17883.04
        8876     1.000251     2.208331  0.000188413     17885.38
        8877     1.001097     2.208585 0.0002060805      17887.4
        8878     1.000632     2.208668 0.0002601165     17888.68
        8879    0.9995154     2.208765  0.000220835     17890.64
        8880    0.9991834     2.209372 0.0002902176     17894.93
        8881    0.9988216     2.209468 0.0003904649     17898.42
        8882    0.9984027     2.209829 0.0002193651     17901.24
        8883    0.9980421     2.210327 0.0003424015     17902.28
        8884    0.9978293     2.210249 0.0002601175     17904.02
        8885    0.9972126     2.210838 0.0002355606     17906.45
        8886    0.9966919     2.210869 0.0003811374      17910.9
        8887    0.9961638     2.211269  0.000271523     17914.41
        8888    0.9953808     2.211774 0.0002784104     17917.11
        8889    0.9945409     2.211924 6.765993e-05     17920.04
        8890    0.9937728     2.211983 -9.236855e-05     17922.95
        8891     0.993739      2.21154 -0.0002145911     17926.36
        8892    0.9938357     2.211404 -0.0003083235     17928.94
        8893    0.9940956     2.211065 -0.000266571     17930.16
        8894    0.9948701      2.21075 -0.0003380005     17932.72
        8895    0.9957014     2.210474 -0.0004291586      17935.8
        8896    0.9961534     2.210052 -0.0006204041     17939.59
        8897    0.9962602     2.209349 -0.0008174376     17942.24
        8898    0.9962913     2.208268 -0.0009721606     17944.44
        8899    0.9962456     2.207204 -0.001120011     17947.68
        8900    0.9962833     2.206164 -0.001152759     17950.83
        8901     0.996261     2.204869 -0.001323363     17953.07
        8902    0.9963834     2.203657  -0.00149027     17956.73
        8903     0.996408     2.201911 -0.001622278     17959.31
        8904    0.9965543     2.200203 -0.001786597     17961.87
        8905    0.9965198      2.19838 -0.001717696     17963.61
        8906    0.9961762     2.196511 -0.001782241     17965.32
        8907    0.9958489      2.19504 -0.001725094     17968.81
        8908    0.9959851     2.193074 -0.001703248      17971.7
        8909    0.9964256     2.191479 -0.001728888     17974.75
        8910    0.9968788     2.189698 -0.001700556     17977.54
        8911    0.9967737     2.188124 -0.001720809     17981.87
        8912    0.9963371     2.186271 -0.001703259     17985.51
        8913    0.9957146     2.184596 -0.001808277     17987.42
        8914    0.9954133     2.182885 -0.001697622     17989.11
        8915    0.9951806     2.180891 -0.001531198        17991
        8916    0.9953521     2.179481  -0.00148323     17994.27
        8917    0.9955128     2.178471 -0.001211675     17995.84
        8918    0.9960591     2.176952 -0.001244873     17998.08
        8919    0.9965372     2.176044  -0.00133283     18001.56
        8920    0.9968963     2.174501 -0.001222667     18004.62
        8921    0.9969384      2.17314  -0.00124477     18007.41
        8922    0.9968235     2.172061 -0.001136947     18010.21
        8923    0.9963507     2.171065 -0.001039969     18013.01
        8924    0.9961212     2.169954 -0.001023526     18016.43
        8925    0.9959544      2.16898 -0.001029282     18019.14
        8926    0.9958941     2.167967 -0.001048072     18022.39
        8927    0.9959464     2.166948 -0.001023641     18024.73
        8928    0.9961593     2.165761  -0.00099039     18025.76
        8929    0.9962779     2.164885 -0.0009744854     18026.69
        8930    0.9964414     2.164005 -0.000854967     18030.02
        8931    0.9963975      2.16305 -0.0009158945     18032.66
        8932    0.9965205     2.162341  -0.00089159     18036.18
        8933    0.9966369     2.161222 -0.0008868045      18039.1
        8934    0.9965191     2.160439 -0.000847332     18041.67
        8935    0.9964305     2.159503 -0.0008152485     18043.79
        8936    0.9965425     2.158952 -0.0007036634     18040.09
        8937    0.9974263     2.157961 -0.000607335     18015.83
        8938    0.9982066     2.157624 -0.0006661895     17964.45
        8939    0.9976797     2.157074 -0.0007037756     17944.75
        8940    0.9973502     2.156287 -0.0008062685     17967.98
        8941    0.9971709     2.155146 -0.0008195215     18020.36
        8942    0.9974871     2.154399 -0.0008646339     18045.21
        8943    0.9977843     2.153796 -0.0007355595     18052.91
        8944    0.9980478     2.152829  -0.00071657     18058.67
        8945    0.9979784     2.152204 -0.0007923815     18064.18
        8946    0.9977584     2.151533 -0.0008158085     18068.28
        8947    0.9977518     2.150626 -0.000847108     18072.11
        8948     0.997887     2.149566 -0.0008845895     18075.24
        8949    0.9983715     2.148815 -0.000923341     18077.97
        8950    0.9985647     2.147995 -0.000850391     18079.43
        8951    0.9988174     2.146933 -0.000933601     18082.07
        8952    0.9990646     2.146164 -0.000892283     18084.22
        8953    0.9995649     2.145081 -0.0008605325     18086.26
        8954     1.000106     2.144426 -0.000917498     18090.29
        8955     1.000637     2.143491 -0.0008599985     18094.05
        8956     1.001145     2.142494 -0.000913013     18095.44
        8957     1.001151     2.141641 -0.0008815775     18095.86
        8958     1.001009     2.140774 -0.0008395025     18098.07
        8959     1.000786     2.139964  -0.00086825     18100.29
        8960     1.000743     2.139136 -0.000879672     18102.26
        8961      1.00082     2.138168 -0.000975661     18105.31
        8962     1.000351     2.137255 -0.0009919015     18108.02
        8963    0.9999867     2.136062 -0.000926379     18110.99
        8964    0.9998298     2.135168 -0.000956819     18113.74
        8965    0.9996031     2.134462 -0.0009339341     18117.49
        8966    0.9994042     2.133428 -0.001047836     18121.03
        8967    0.9992802     2.132326 -0.001084476     18123.23
        8968    0.9992545     2.130977 -0.001047969     18124.97
        8969    0.9993357     2.130124 -0.0009916795      18126.5
        8970    0.9992854     2.129236 -0.000946758     18127.93
        8971    0.9992213     2.128359 -0.0009747895     18131.12
        8972    0.9991157      2.12719 -0.0008948615     18136.34
        8973    0.9989987     2.126225 -0.000904473     18140.03
        8974     0.998535     2.125656 -0.000839334     18141.54
        8975    0.9981127     2.124741 -0.000784961      18143.1
        8976    0.9976649     2.123833 -0.000806937     18144.69
        8977    0.9977149     2.123085 -0.000835534     18146.88
        8978    0.9979328     2.122429 -0.000868594     18148.54
        8979     0.997853     2.121399 -0.000816315     18149.97
        8980    0.9976703     2.120358 -0.0008793105     18152.37
        8981    0.9975007      2.11982 -0.0007759735     18153.52
        8982    0.9976267     2.118911 -0.000718833     18154.09
        8983    0.9979562     2.118295 -0.000693847     18155.37
        8984    0.9983673     2.117483 -0.000673371     18157.68
        8985    0.9983139     2.117045 -0.0006810385     18159.81
        8986    0.9980756     2.116218 -0.000613261     18162.14
        8987    0.9979409     2.115571 -0.0006782295     18164.13
        8988    0.9978449      2.11503 -0.0006125895     18166.64
        8989    0.9978054     2.114332 -0.000573497     18168.37
        8990    0.9977982     2.113767 -0.0005292815     18170.17
        8991    0.9980608     2.113277 -0.0005115305     18171.79
        8992    0.9980053     2.112913 -0.000505069     18172.07
        8993    0.9979216     2.112286 -0.000487533     18173.89
        8994    0.9978631     2.111747 -0.000556981     18175.37
        8995    0.9978239     2.111327 -0.0005177515     18178.18
        8996     0.997887     2.110685  -0.00050744      18181.3
        8997    0.9978588     2.110215 -0.000529444      18184.1
        8998    0.9979226     2.109717 -0.000525574     18185.94
        8999    0.9980179     2.109209 -0.0005579545     18187.02
        9000     0.997964     2.108583 -0.0005956285     18189.58
        9001    0.9976197     2.107983 -0.0005447155     18191.66
        9002    0.9971028     2.107335 -0.0005028835     18194.29
        9003    0.9969839      2.10703 -0.0004863695     18197.91
        9004    0.9970996     2.106571 -0.000394096     18201.48
        9005    0.9971808     2.106037 -0.0004165971     18204.14
        9006    0.9972198     2.105759 -0.0005386485     18206.44
        9007    0.9970389     2.105364 -0.000471153     18208.89
        9008    0.9968999     2.104416 -0.000526394     18211.63
        9009     0.996648     2.104153 -0.0005127409     18213.59
        9010     0.996683     2.103653 -0.000341703     18215.02
        9011    0.9966993     2.103313 -0.000391709     18216.65
        9012    0.9967234      2.10305 -0.0003689635     18218.47
        9013    0.9966267     2.102586 -0.0003763945      18220.5
        9014    0.9963953     2.102177 -0.0003731095     18222.24
        9015    0.9963774     2.101807 -0.000430332      18224.4
        9016    0.9963651     2.101557 -0.000390195     18227.26
        9017    0.9964292     2.100865 -0.0004132505     18229.17
        9018    0.9965011     2.100616 -0.000468063     18231.59
        9019    0.9966979     2.100154 -0.0004158885     18234.98
        9020    0.9971265     2.099685   -0.0005047     18238.38
        9021    0.9976672     2.099201 -0.000506109     18241.25
        9022    0.9980729     2.098598 -0.0005756895     18243.95
        9023      0.99804      2.09813 -0.000655717     18246.64
        9024    0.9977761     2.097382 -0.000667507     18249.22
        9025    0.9975537     2.096578 -0.0006627585     18250.68
        9026    0.9975823     2.095927 -0.000674888     18252.98
        9027    0.9974427     2.095479 -0.0006302945     18256.07
        9028    0.9971086     2.094683 -0.0006543345     18259.28
        9029    0.9969405     2.094057 -0.0007373135     18262.86
        9030    0.9968271      2.09331 -0.0007186645     18265.11
        9031    0.9969142      2.09253 -0.000760769     18266.88
        9032    0.9969821     2.091808 -0.0007687175     18267.98
        9033     0.997223     2.091014 -0.000734229     18269.13
        9034    0.9976952     2.090235 -0.000754769     18271.47
        9035    0.9979878     2.089593 -0.0007975795     18275.14
        9036    0.9980254     2.088789 -0.0007456555     18277.82
        9037    0.9983868     2.087824 -0.0007919735     18280.99
        9038    0.9984662     2.087253 -0.0008040435     18281.61
        9039    0.9986053     2.086425 -0.0007270255     18282.39
        9040    0.9986743     2.085573  -0.00079691     18283.05
        9041    0.9985615     2.084915 -0.0008017219     18285.26
        9042    0.9984788     2.084065 -0.000720629     18287.69
        9043    0.9984231     2.083218 -0.000802926     18289.22
        9044    0.9985794      2.08269 -0.000801592     18292.07
        9045    0.9989189     2.081704 -0.000751911     18296.52
        9046    0.9992984     2.080859 -0.0008270465     18298.94
        9047    0.9996435      2.08021 -0.0007958025     18300.79
        9048     1.000067     2.079382 -0.0008712845     18303.76
        9049     1.000338     2.078521 -0.0008806065     18305.77
        9050     1.000517     2.077374 -0.0009191705     18304.89
        9051     1.000739     2.076688 -0.0009256645     18306.47
        9052     1.001007     2.075705 -0.0008647205     18310.51
        9053     1.001167     2.074818 -0.0009193905     18313.89
        9054     1.001257     2.073915 -0.0008820685      18316.5
        9055     1.001336      2.07301 -0.0008888585     18319.06
        9056     1.001157     2.072177 -0.000931356      18319.7
        9057      1.00097     2.071262 -0.0009206795     18320.56
        9058     1.000691     2.070189 -0.000925077     18321.03
        9059     1.000487     2.069328 -0.000905414     18321.78
        9060     1.000464     2.068477 -0.000854801     18324.06
        9061     1.000301     2.067641 -0.0007824155     18325.14
        9062     1.000364      2.06677 -0.000798104     18325.33
        9063      1.00084     2.066198 -0.0008218815     18326.68
        9064      1.00138     2.065284 -0.0008561526     18328.69
        9065     1.001987     2.064353 -0.0009780399     18330.75
        9066     1.002585     2.063345  -0.00083464     18332.31
        9067     1.003248     2.062286 -0.0007822475     18335.08
        9068     1.003894     2.061946 -0.000800908     18337.43
        9069     1.004453     2.061224 -0.0007291975     18339.89
        9070     1.005039     2.060142 -0.0007655715     18343.19
        9071     1.005431     2.059369 -0.0007730485     18345.73
        9072     1.005192     2.058884 -0.000726736     18347.66
        9073     1.004999     2.058132 -0.0007254816     18350.31
        9074      1.00478     2.057235 -0.0008267375     18352.51
        9075     1.004499     2.056467 -0.000816387     18353.99
        9076     1.004264     2.055577 -0.0008156215     18356.22
        9077     1.004065     2.054867 -0.000883546      18358.1
        9078     1.003753     2.053972 -0.000807075     18360.65
        9079     1.003605     2.052933 -0.0008063185     18362.23
        9080     1.003647     2.052348 -0.0008376085     18363.14
        9081      1.00381     2.051641 -0.000812077     18363.36
        9082     1.003799     2.050622 -0.0008464005      18362.4
        9083     1.003928     2.049685 -0.000886552     18362.18
        9084     1.004133     2.048963 -0.000818738     18358.64
        9085     1.004406     2.048095 -0.0007787385     18344.86
        9086     1.004158     2.047347 -0.0008364555     18319.74
        9087     1.004026      2.04657 -0.0008921059      18301.9
        9088     1.003956     2.045617 -0.000809079     18294.35
        9089     1.003909     2.044527 -0.0008883425     18286.89
        9090     1.003626     2.044111 -0.0008735865     18261.23
        9091     1.003242     2.043016 -0.000860942     18210.63
        9092     1.003123     2.042123 -0.0007483694     18165.36
        9093     1.003875     2.041083 -0.0006203171     18077.26
        9094      1.00157     2.041117 -0.000744142     18064.13
        9095      1.00111     2.040535 -0.0006642125     18217.63
        9096     1.002814     2.039146 -0.0007551425     18238.15
        9097     1.003562     2.038426  -0.00080384     18117.36
        9098     1.001758     2.038097 -0.000724277     18105.49
        9099     1.001326      2.03732 -0.0007345976     18210.93
        9100     1.001939     2.036249 -0.0008577875     18290.85
        9101     1.001981     2.035488 -0.0008561665     18310.35
        9102     1.001655     2.034665 -0.0007875885     18331.79
        9103     1.001428     2.033895 -0.000756549     18350.74
        9104     1.001427     2.033098 -0.000786292     18362.36
        9105     1.001318     2.032461 -0.0007982285     18370.21
        9106     1.001027      2.03152 -0.000772065     18380.23
        9107     1.000624     2.030702  -0.00081623     18397.22
        9108     1.000441      2.03001 -0.0008307195     18414.85
        9109     1.000409     2.029196   -0.0007807     18424.18
        9110     1.000594     2.028197 -0.000809096     18429.98
        9111     1.000658     2.027579  -0.00079957     18434.29
        9112     1.001075     2.026774 -0.000786542     18437.39
        9113     1.001454     2.025998 -0.000857224     18439.97
        9114      1.00167     2.025051 -0.0007758895     18442.91
        9115     1.001751      2.02415 -0.000755376     18447.06
        9116     1.001532      2.02367 -0.0007779605     18451.82
        9117     1.001181     2.022977 -0.0007376495     18454.57
        9118     1.001488     2.021939 -0.0007864085     18457.58
        9119     1.001971       2.0212 -0.0007386745     18459.21
        9120     1.002234     2.020525  -0.00067151     18459.48
        9121     1.002804     2.020022 -0.000676582     18461.09
        9122     1.003244     2.019253 -0.000715623     18461.11
        9123     1.003565     2.018493 -0.000765302     18460.87
        9124     1.004167     2.017662 -0.000722007     18463.75
        9125     1.004376     2.016961 -0.000718074     18467.71
        9126     1.004208     2.016365 -0.000639986     18470.99
        9127     1.004114     2.015621 -0.0006252935     18473.39
        9128     1.004057     2.015102 -0.000631722     18475.18
        9129     1.004227      2.01446 -0.000644215     18478.09
        9130     1.004504     2.013838 -0.0007184435     18479.29
        9131     1.005333     2.013044 -0.0007199365     18481.17
        9132     1.005597     2.012228 -0.000688603     18482.06
        9133     1.005463      2.01158 -0.0006231165     18483.75
        9134      1.00504     2.011084 -0.000573303     18485.63
        9135     1.004436     2.010552 -0.000525654     18488.72
        9136     1.003703     2.009935 -0.000563629     18489.72
        9137     1.003202     2.009477 -0.000572792     18490.39
        9138     1.002771     2.008829   -0.0005256     18491.29
        9139     1.002501     2.008261 -0.000533434     18491.59
        9140     1.002321     2.007833 -0.000493542     18492.29
        9141       1.0027     2.007344 -0.0005373675     18495.27
        9142     1.003551     2.006855 -0.000618796     18497.98
        9143     1.004511     2.006111 -0.000581771     18500.91
        9144     1.005317     2.005358 -0.000578729     18504.13
        9145     1.006681     2.005016 -0.0004957944     18506.53
        9146     1.008646      2.00454 -0.000385526     18508.72
        9147     1.009405     2.004128 -0.0004826735      18509.5
        9148     1.008284     2.003816 -0.000500854      18511.2
        9149     1.006695     2.003086 -0.0005079375     18512.29
        9150      1.00548     2.002537 -0.000570487     18513.64
        9151     1.004909     2.002096 -0.0005177565     18514.26
        9152     1.004435     2.001534  -0.00050489     18514.84
        9153     1.003927     2.001015 -0.000573394     18516.88
        9154     1.003249     2.000517 -0.000539637     18519.06
        9155      1.00231     1.999803 -0.000594499     18520.02
        9156     1.001759     1.999375 -0.000570263     18522.12
        9157     1.001357     1.998637 -0.0005355476     18523.55
        9158     1.000852     1.998236 -0.000618693     18524.98
        9159     1.000397     1.997661 -0.0005559641     18527.23
        9160    0.9999715       1.9969 -0.0006930885     18530.61
        9161    0.9997602     1.996413 -0.000648009     18533.02
        9162    0.9999233     1.995464 -0.000563738     18535.56
        9163      1.00024     1.995068 -0.0005975085     18537.88
        9164      1.00042     1.994645 -0.000563211     18541.02
        9165     1.000316     1.994023 -0.000613869     18543.58
        9166     1.000471     1.993211 -0.0006962125     18545.03
        9167     1.000527     1.992613 -0.0007060865        18547
        9168     1.000575      1.99186 -0.0007081965     18548.71
        9169     1.001043     1.991198 -0.0006755675     18551.37
        9170     1.001668     1.990378 -0.0006968335     18554.47
        9171      1.00214     1.989911 -0.0006942619     18556.41
        9172     1.002434     1.989073 -0.000611562     18557.17
        9173     1.002605     1.988421  -0.00070256     18557.56
        9174      1.00252     1.987932 -0.000662158     18556.86
        9175     1.002597     1.987101 -0.000651876     18558.06
        9176     1.002805     1.986425 -0.0006943815     18558.59
        9177     1.003096     1.985814 -0.0007024905     18558.84
        9178     1.003432     1.985155 -0.000684357     18559.18
        9179     1.003975     1.984291 -0.0007231275     18560.05
        9180     1.004459     1.983687 -0.0007378489     18560.68
        9181     1.004685     1.982921   -0.0006345     18562.23
        9182     1.004643     1.982203 -0.0006611915     18563.18
        9183      1.00447     1.981753 -0.0006481345        18564
        9184     1.004423     1.981042 -0.0006101025     18565.03
        9185     1.004283     1.980329 -0.000681208     18567.01
        9186     1.004281     1.979763 -0.000648568     18569.01
        9187     1.004204     1.979028 -0.0005778785        18570
        9188      1.00428     1.978448 -0.000622783     18572.03
        9189     1.004214     1.978017 -0.0006215645     18571.68
        9190     1.004672     1.977272  -0.00061229      18572.7
        9191     1.004675     1.976541 -0.0006509515     18574.73
        9192     1.004477     1.975999 -0.000644797     18577.06
        9193     1.004337     1.975414 -0.000643246     18578.73
        9194     1.004749     1.974692 -0.0005967095     18580.89
        9195     1.005176     1.973968 -0.0005647235     18581.02
        9196     1.005295     1.973612 -0.0005901495     18581.21
        9197     1.005224     1.973155 -0.0005638495     18582.15
        9198     1.005023     1.972332 -0.0006474825     18583.11
        9199     1.004844     1.971713 -0.000693656     18584.14
        9200     1.004887     1.971022 -0.0006314165     18587.42
        9201     1.004932      1.97038 -0.0006617445     18589.42
        9202     1.005039     1.969806 -0.0006169905     18589.48
        9203     1.005241     1.969066 -0.0006210535     18590.71
        9204     1.005448     1.968554 -0.000696464     18594.26
        9205     1.005572     1.967896 -0.000660882     18594.84
        9206     1.005517      1.96702 -0.000698758     18594.86
        9207      1.00543     1.966423 -0.0007175295      18596.2
        9208     1.004758     1.965759 -0.0006359775     18598.12
        9209     1.003944     1.965026  -0.00066393     18600.53
        9210     1.003844     1.964476 -0.0007060235     18604.12
        9211     1.003889     1.963767 -0.0007154635     18606.73
        9212     1.003854     1.962935 -0.0007320645     18608.38
        9213     1.003981     1.962164 -0.000735084     18609.52
        9214      1.00401     1.961548 -0.000699038     18610.24
        9215     1.003865     1.960827 -0.0006817515     18612.37
        9216     1.003546     1.960139 -0.0007366145     18614.43
        9217     1.003277     1.959437 -0.000781523      18615.9
        9218      1.00316     1.958602 -0.0007372695     18617.17
        9219     1.002865       1.9577 -0.0007174135     18618.03
        9220     1.002415      1.95719 -0.000694483        18618
        9221     1.002309     1.956567 -0.0006688595     18619.32
        9222     1.002416     1.955824 -0.000718486     18622.07
        9223     1.002507     1.955025 -0.0007657825     18623.59
        9224     1.002741     1.954316 -0.000832472     18624.64
        9225     1.002939     1.953504 -0.0008140945      18626.2
        9226      1.00307     1.952494 -0.0007649375     18628.49
        9227     1.003139     1.951769 -0.000751064     18631.03
        9228     1.002913     1.951256 -0.0006486135     18632.16
        9229     1.002771       1.9505 -0.0006065985     18634.31
        9230     1.002576     1.949899 -0.000699646     18634.33
        9231     1.002583     1.949342 -0.000728358     18634.54
        9232     1.002675     1.948458 -0.000719163     18635.14
        9233     1.002382     1.947586 -0.0007249865     18635.16
        9234     1.002093     1.947023 -0.0007376275     18634.45
        9235     1.001963     1.946442 -0.000673618     18635.51
        9236     1.001537     1.945507 -0.0007347996     18636.02
        9237     1.001324     1.944892  -0.00083386     18638.14
        9238     1.000931     1.944084 -0.000796007     18639.25
        9239     1.000655     1.943107 -0.0007684814     18640.35
        9240     1.000244     1.942323 -0.000618904     18641.69
        9241     1.000063     1.941818 -0.000559084      18643.4
        9242    0.9998539     1.941608 -0.0005950755     18643.96
        9243    0.9997388      1.94087 -0.0006395265     18644.83
        9244    0.9995299     1.939943 -0.000723338     18644.64
        9245    0.9993411      1.93926 -0.0007323939     18643.49
        9246     0.999016     1.938715 -0.000624921     18641.94
        9247    0.9989634     1.937941 -0.0006527551     18638.21
        9248    0.9992016     1.937443 -0.0008085579     18628.16
        9249    0.9997795     1.936649 -0.0006578195     18588.02
        9250     1.000229      1.93548  -0.00068617     18476.46
        9251    0.9987699      1.93531 -0.0007115245     18406.55
        9252     0.997976     1.934698 -0.000671361     18517.53
        9253    0.9986065     1.933803 -0.000699016     18584.07
        9254    0.9995418     1.932795 -0.000709227     18517.04
        9255    0.9986762     1.932514 -0.0007199855      18427.7
        9256    0.9978511     1.931861 -0.0006596976     18515.82
        9257    0.9983516     1.930923 -0.000769737     18617.17
        9258    0.9989319     1.930156 -0.0007776484     18664.03
        9259    0.9993626     1.929435 -0.0006750295     18674.15
        9260    0.9995408     1.928751 -0.0006616725     18677.94
        9261    0.9991779     1.928223 -0.000618278     18680.74
        9262    0.9989963     1.927509 -0.0005987375     18683.29
        9263     0.999094     1.926962 -0.0006589345     18685.54
        9264    0.9991742     1.926356 -0.0006619605     18687.28
        9265    0.9991249     1.925587 -0.000637902      18687.8
        9266    0.9988225     1.924862  -0.00072441      18687.6
        9267    0.9987041      1.92441 -0.000683153     18687.13
        9268    0.9986388     1.923458 -0.000660048     18686.62
        9269    0.9986169     1.922854 -0.0007338185     18689.41
        9270    0.9985625     1.922221 -0.000653122      18691.1
        9271    0.9985576     1.921475 -0.000692234     18691.21
        9272    0.9986997     1.920846 -0.0006952165     18693.64
        9273    0.9988098     1.920085 -0.000616675      18696.4
        9274    0.9989259     1.919441 -0.000640807     18697.78
        9275    0.9990076     1.919008 -0.0006332455     18697.88
        9276    0.9990134     1.918283 -0.0006087475      18697.6
        9277    0.9990105     1.917552 -0.0006180785        18699
        9278    0.9989662     1.917006 -0.0006032285     18701.35
        9279    0.9988834     1.916536 -0.0005970755     18702.11
        9280    0.9992395      1.91587 -0.0005968575     18703.44
        9281    0.9998289     1.915164 -0.0006512875     18705.41
        9282      1.00021     1.914618 -0.0006480335     18706.18
        9283     1.000683      1.91393 -0.0006483215     18705.78
        9284     1.001046     1.913277 -0.0006151395     18706.98
        9285     1.001135     1.912571  -0.00060299     18708.88
        9286     1.001005     1.912158 -0.0005956695     18710.68
        9287     1.000902     1.911519  -0.00053127     18712.26
        9288      1.00077     1.910895 -0.000590312     18713.44
        9289     1.000442     1.910446 -0.0005747375     18713.98
        9290     1.000166     1.909796 -0.000605091     18714.91
        9291    0.9998586      1.90922 -0.0006149465     18715.09
        9292     0.999975     1.908474 -0.0005769095     18715.79
        9293    0.9998824     1.907986 -0.000607821     18716.95
        9294    0.9996879     1.907489   -0.0005701     18718.74
        9295    0.9997185     1.906788 -0.0005667605     18720.55
        9296    0.9997695     1.906194 -0.000508897     18721.38
        9297    0.9997227     1.905719 -0.000525053     18721.99
        9298    0.9995002     1.905453 -0.000528618     18723.08
        9299    0.9991424     1.904688 -0.000588768     18724.84
        9300    0.9991172      1.90408 -0.000631535     18727.59
        9301    0.9991907     1.903364 -0.0005848045     18728.47
        9302    0.9994487     1.902927 -0.0005907014     18729.06
        9303    0.9995875     1.902349 -0.0004864135     18729.18
        9304    0.9999274     1.901717 -0.000551038     18729.86
        9305     0.999834     1.901418 -0.000534011     18729.68
        9306    0.9994911     1.900723 -0.0005167205     18730.54
        9307    0.9990676     1.900213 -0.0005321445     18731.64
        9308      0.99887      1.89965 -0.000567966     18732.59
        9309    0.9988753      1.89929 -0.0006053095     18733.48
        9310    0.9992618     1.898451 -0.000626088     18734.39
        9311    0.9994857     1.897792 -0.0006621339     18734.24
        9312    0.9995218     1.897146 -0.0005500925     18733.94
        9313    0.9997558     1.896641 -0.000591341     18736.21
        9314    0.9995244     1.896251 -0.000526292      18737.2
        9315    0.9992999     1.895426 -0.0005466296     18738.29
        9316    0.9991934      1.89504 -0.000662722     18739.72
        9317    0.9988391     1.894455 -0.0006043605     18741.52
        9318    0.9989311       1.8936 -0.000619465     18744.15
        9319    0.9988974     1.893009 -0.000631012     18746.21
        9320    0.9987638     1.892562 -0.0005876995     18745.74
        9321    0.9987849     1.891931 -0.000559882     18743.46
        9322    0.9994713     1.891249 -0.000609822     18743.09
        9323     1.000296     1.890769 -0.000582076     18744.09
        9324     1.000847     1.890123 -0.000560948     18745.14
        9325     1.000808     1.889602 -0.0005746845     18746.23
        9326     1.000787     1.889005 -0.0006023655     18748.22
        9327     1.000651      1.88847 -0.0005939765     18749.26
        9328     1.000769     1.887714 -0.0005912945      18750.7
        9329     1.000988     1.887226 -0.0005638325     18752.27
        9330     1.001254      1.88664 -0.000533248     18753.86
        9331     1.001317     1.886215 -0.000594746     18755.12
        9332     1.001108     1.885581 -0.0005785275     18753.55
        9333     1.000835     1.884847 -0.000554964     18752.27
        9334     1.000701     1.884326 -0.0005665805     18753.57
        9335      1.00063     1.883995 -0.0005406855      18756.3
        9336     1.000519     1.883314 -0.000606785     18759.03
        9337     1.000506     1.882685 -0.000627178      18762.3
        9338       1.0003     1.881899 -0.000557017      18763.3
        9339     1.000043     1.881487 -0.0005632605     18762.36
        9340    0.9999105     1.881086 -0.0005836285     18761.37
        9341     1.000088     1.880432  -0.00061483     18762.19
        9342     1.000179     1.879564 -0.0006377695     18761.61
        9343     1.000122     1.879027 -0.000638504     18762.35
        9344    0.9999935     1.878535 -0.000573126     18763.21
        9345    0.9999406     1.877878 -0.0006518515     18764.16
        9346    0.9996491     1.877272 -0.0006485515     18764.57
        9347    0.9995729      1.87642 -0.0005770475     18765.87
        9348    0.9997031     1.875941 -0.0006136035     18767.61
        9349    0.9996682     1.875569  -0.00054295     18766.19
        9350    0.9999907     1.874817 -0.0005768855     18762.53
        9351       1.0001     1.874248   -0.0006593     18759.68
        9352     1.000071     1.873634 -0.0006213475     18761.87
        9353    0.9999106     1.872932 -0.000649054      18764.6
        9354    0.9998358     1.872332 -0.000659302     18765.76
        9355    0.9999024     1.871652 -0.0006529055     18767.73
        9356     1.000049     1.870996  -0.00064004     18772.03
        9357     1.000198     1.870321 -0.000649876     18776.48
        9358     1.000171     1.869772 -0.0006698185     18778.09
        9359     1.000215     1.869052 -0.0006112295     18778.15
        9360     1.000377     1.868317 -0.000605976     18776.53
        9361     1.000565     1.867876 -0.0005505915     18774.45
        9362     1.000455     1.867348 -0.000526767     18770.88
        9363     1.000298      1.86685 -0.000589903     18771.37
        9364     1.000221      1.86621 -0.000646563     18773.49
        9365     1.000266     1.865516 -0.000665972     18774.58
        9366     1.000587     1.864762 -0.000616938     18776.11
        9367     1.000852     1.864186 -0.000597157      18779.3
        9368     1.000844     1.863742 -0.000551935     18784.13
        9369     1.000817     1.863127 -0.0005607165     18786.18
        9370     1.000811     1.862554 -0.0005971475     18786.31
        9371     1.000815     1.861943 -0.0006512415     18787.81
        9372     1.001141     1.861354 -0.000618495     18789.93
        9373     1.001305     1.860522 -0.0006461945     18790.86
        9374     1.001036      1.86008 -0.000663149     18789.32
        9375      1.00132     1.859358 -0.0005973535     18788.02
        9376     1.001553     1.858701 -0.0006140455     18787.54
        9377     1.001582     1.858133 -0.0005677035     18788.75
        9378     1.001387     1.857624 -0.0005871455     18789.89
        9379     1.001196     1.857088 -0.0005312195     18792.16
        9380      1.00112     1.856352 -0.0006012285     18793.08
        9381     1.001018     1.856008 -0.000601946     18793.14
        9382     1.001001     1.855219 -0.0005859015     18793.49
        9383     1.000972      1.85468 -0.000594974     18795.27
        9384     1.000977     1.854009 -0.0005403045     18796.28
        9385     1.001182     1.853628 -0.0005191445     18798.03
        9386     1.001345     1.853058 -0.0005288696     18798.62
        9387     1.001591     1.852603 -0.000643163     18799.27
        9388     1.001642     1.851893 -0.000676629     18799.71
        9389     1.001873     1.851056 -0.000696474     18799.72
        9390     1.002234     1.850351 -0.000651915     18799.07
        9391     1.002751     1.849817 -0.000606294     18797.81
        9392     1.003169     1.849286 -0.0006247765     18797.21
        9393     1.002912      1.84863 -0.0006293875     18796.49
        9394     1.002489     1.847852  -0.00063961     18796.74
        9395     1.002293       1.8473 -0.000638407     18798.19
        9396     1.002022     1.846727 -0.000601908     18799.59
        9397     1.001872     1.846077   -0.0006848     18800.38
        9398     1.001609     1.845444 -0.0006453985     18801.43
        9399      1.00152     1.844561 -0.0006229645     18803.71
        9400     1.001442     1.844146 -0.0006193725     18803.18
        9401     1.001343     1.843585 -0.0005324205      18802.7
        9402     1.001417     1.842967 -0.0005873115      18802.8
        9403     1.001842     1.842431 -0.000633217     18804.41
        9404     1.002074     1.841796 -0.000664005     18805.64
        9405     1.001813     1.841052 -0.0006395825     18807.34
        9406     1.001471     1.840311 -0.0006442335     18808.81
        9407     1.001257     1.839873 -0.000594267     18809.16
        9408     1.001288     1.839219 -0.0006118245     18808.43
        9409     1.001381     1.838675 -0.000603069     18808.09
        9410     1.001709     1.837863 -0.0005949455     18809.99
        9411     1.001985      1.83746 -0.000611596     18811.05
        9412     1.001874      1.83684 -0.0005585505     18811.19
        9413     1.001137     1.836229 -0.0006513865     18812.06
        9414     1.000384     1.835629 -0.0006389965     18813.07
        9415     1.000147     1.834855 -0.000623497     18814.08
        9416    0.9998725     1.834284 -0.000586252     18813.77
        9417    0.9996432     1.833735 -0.000568325     18812.87
        9418    0.9993456     1.833284 -0.0005401525     18811.37
        9419    0.9991067     1.832581 -0.0006210335     18810.99
        9420     0.998956     1.832123 -0.0006486475     18810.89
        9421    0.9990105      1.83125 -0.0006365245     18810.26
        9422    0.9988286      1.83069 -0.0006505605     18809.14
        9423    0.9985962     1.830035 -0.000608151     18808.13
        9424    0.9983449     1.829521 -0.000596532     18808.43
        9425    0.9984077     1.828818 -0.000549416     18809.06
        9426    0.9986022     1.828304 -0.0006255285     18809.01
        9427    0.9985183     1.827838 -0.0006248605     18809.64
        9428    0.9982941     1.827019 -0.0006365475     18809.67
        9429    0.9981252     1.826318 -0.0006521045     18808.28
        9430    0.9980158     1.825757 -0.0006287835     18808.36
        9431    0.9977262     1.825229 -0.0005971665      18808.7
        9432    0.9976111     1.824504 -0.0005964305     18809.95
        9433    0.9975687      1.82393 -0.000629849     18811.38
        9434    0.9976882     1.823372 -0.0006014005     18812.14
        9435    0.9976946      1.82271 -0.000611253        18811
        9436    0.9977565     1.822098 -0.0006594895     18811.02
        9437    0.9975462     1.821485 -0.000628985     18810.85
        9438    0.9976314     1.820734 -0.000629983     18810.91
        9439    0.9976033     1.820194 -0.0006215985     18810.62
        9440    0.9975025     1.819578  -0.00059955     18809.83
        9441    0.9977463     1.818998 -0.000604446     18810.77
        9442    0.9979557     1.818335 -0.0005953245     18810.78
        9443    0.9976707     1.817776 -0.000599503     18809.43
        9444    0.9971045     1.817197 -0.000560623     18809.05
        9445    0.9968041       1.8166 -0.000575655     18809.01
        9446    0.9966605     1.816093 -0.0006040735     18809.44
        9447    0.9963215     1.815474  -0.00057235     18809.19
        9448      0.99614      1.81478 -0.0005561025     18809.69
        9449    0.9958432     1.814311 -0.0005896275     18810.08
        9450    0.9956987     1.813869 -0.000537015     18809.27
        9451    0.9958029     1.813115  -0.00058837     18808.71
        9452    0.9959835     1.812632 -0.000595904      18808.6
        9453    0.9961252     1.811957 -0.0005494835     18807.95
        9454    0.9961838     1.811485 -0.0006099785     18806.96
        9455    0.9962157     1.810917 -0.000602127     18806.99
        9456    0.9964541     1.810193 -0.000562865     18806.99
        9457    0.9967285     1.809549 -0.000552707     18805.33
        9458    0.9969901     1.809234 -0.0005449525     18805.07
        9459    0.9971741     1.808706 -0.0005320301     18804.24
        9460     0.997375     1.808013 -0.000657228     18805.63
        9461    0.9976438     1.807421 -0.0006655155     18807.11
        9462    0.9980875     1.806605 -0.000599717      18809.3
        9463    0.9980282     1.806044 -0.0005997289        18810
        9464    0.9980418     1.805614 -0.0004885175     18810.33
        9465    0.9979013     1.805022 -0.0004891595     18810.78
        9466     0.997827     1.804651 -0.0005353705     18812.23
        9467    0.9976323     1.804088 -0.000536326     18813.17
        9468      0.99738     1.803472 -0.0005612585     18812.93
        9469    0.9971644     1.802877 -0.0005892945     18812.81
        9470    0.9968614     1.802405 -0.000595717     18812.67
        9471    0.9966508      1.80173 -0.0005477245     18811.64
        9472    0.9966722     1.801089 -0.0005571775      18810.7
        9473    0.9967369     1.800686 -0.000540748     18809.17
        9474    0.9969709     1.800177 -0.0005760605     18807.99
        9475    0.9971737     1.799567 -0.0006034615     18807.16
        9476     0.997314     1.798785 -0.0005695445     18805.75
        9477    0.9975845     1.798272 -0.0006041655     18805.73
        9478    0.9976682     1.797899 -0.000536142      18805.6
        9479     0.997924     1.797151 -0.0005191705     18805.74
        9480    0.9981053     1.796641 -0.0005487315     18805.47
        9481    0.9985135     1.796195 -0.000518472     18805.38
        9482      0.99872     1.795704 -0.0005463695     18803.15
        9483    0.9989724     1.795077 -0.0005178875     18800.01
        9484    0.9990585     1.794455 -0.0005767095     18791.64
        9485    0.9987922     1.794124 -0.0005475635     18772.52
        9486    0.9990741     1.793397 -0.0005295861     18763.92
        9487    0.9994608     1.792887 -0.0006306125      18770.2
        9488     0.999533     1.792337 -0.000621738     18779.21
        9489     0.999453     1.791601 -0.0006393865     18788.17
        9490    0.9993353      1.79091 -0.000651936     18790.33
        9491    0.9993986     1.790329 -0.000597241     18780.99
        9492    0.9996061     1.789729 -0.000545189     18764.46
        9493    0.9997561     1.789212 -0.0005519065     18761.89
        9494    0.9999292     1.788729 -0.0005027015     18769.61
        9495    0.9995136     1.788121 -0.0005224545     18780.55
        9496    0.9988442     1.787718 -0.0005567575     18789.03
        9497     0.998487     1.787122  -0.00048997     18790.44
        9498    0.9984101     1.786502 -0.0004621399     18789.53
        9499    0.9982754     1.786162 -0.000351852     18789.27
        9500    0.9982754     1.786162 -0.000351852     18789.27
