# This file has been produced by extranormal (v 1.0.1 - February 23, 2017)
# O. Roudenko - Synchrotron SOLEIL. Covered by GPL licence.
#Data from HDF File: /nfs/ruche-rock/rock-soleil/com-rock/2022/Projets/20220725_Gilles/op4_cell4_alone/op4_cell4_pos1_close/op4_cell4_pos1_close_0051/op4_cell4_pos1_close_0051_13278.nxs to op4_cell4_pos1_close_0051_13301.nxs
#Time at start=2022-07-28 08:24:23.277
#Time from start (seconds)=64.9461791683
#Sample temperature (C)=nan
# Normalization -------------
# pivot spectrum: LNO_pristine_av1100_00001.txt
# E0=8332.88   Eshift=-0.200000368627
# E0_pivot = 8349.6
# pre-edge params: from E0_pivot-240.0 to E0_pivot-50.0
# pre-edge range: [8109.6, 8299.6]
# post-edge params: from E0_pivot+70.0 to E0_pivot+1155.0
# post-edge range: [8419.6, 9500.0]
# I jump at E0_pivot = 0.798529124981
# shifted energy	normalized	reference	ref.derivative	I0
        8060  0.001576633     1.042222 -0.0004663292     14939.97
        8065 0.0004058575     1.039887 -0.0004805174     14959.49
        8070 0.0003792143      1.03741 -0.0004574148     14984.93
        8075 -0.0007769258     1.035142 -0.0004555373     15008.18
        8080  0.000238492     1.033074 -0.000451935     15030.07
        8085  0.001134512     1.030777 -0.0004562524     15048.85
        8090  0.001771387     1.028371 -0.000461483     15070.76
        8095  0.001072802     1.026017 -0.0004633801     15095.35
        8100 0.0008307073     1.023844 -0.0004391899     15117.52
        8105 0.0005423895     1.021509 -0.0004316289     15140.25
        8110 0.0001487837     1.019587 -0.0004298622     15158.98
        8115 -0.0003618952     1.017384 -0.0004141685     15177.64
        8120 0.0002527411     1.015247 -0.0004177909     15198.17
        8125 -0.0005138008     1.013226 -0.0004222629     15220.32
        8130 -2.278452e-05     1.011231 -0.0004130246     15242.41
        8135   0.00175347     1.008939 -0.000413695     15263.11
        8140 0.0007811992     1.006987 -0.0004136929     15282.33
        8145 -0.0004394136     1.004952 -0.0004022676     15304.66
        8150 -0.001520721     1.002957 -0.000419163     15322.44
        8155 -0.0008989997     1.000894 -0.0004169193     15345.56
        8160 0.0003887714    0.9986033 -0.0004345917     15363.62
        8165  0.001558885    0.9966135 -0.0004363395     15392.62
        8170  0.003032333    0.9942656 -0.0004225195      15409.6
        8175 0.0008787533    0.9921669 -0.0004270281      15432.4
        8180 0.0006984205    0.9901529 -0.0004145571     15452.46
        8185 -0.0004372035    0.9880729 -0.0004073935      15472.7
        8190  -0.00112323    0.9859744 -0.0004108913     15495.27
        8195 -0.000540174     0.984019 -0.0004129387     15516.92
        8200 -0.0004810444    0.9819351 -0.0004180063     15534.01
        8205 -0.0002391634    0.9798141 -0.000421834     15557.17
        8210 -0.001334342    0.9776143 -0.0004109256     15574.07
        8215  -0.00152256    0.9755823 -0.0004089024     15595.02
        8220 -0.0008575517    0.9737166 -0.0003959347      15617.4
        8225 -0.0008434153    0.9716361 -0.0004015568      15639.6
        8230 -0.0006977451    0.9696956 -0.0004077317     15660.24
        8235 -0.001125178    0.9675512 -0.000402897      15677.1
        8240 -0.0005477068     0.965562 -0.0003904322        15700
        8245  0.001148817    0.9635781 -0.0003828382     15721.49
        8250  0.000202208     0.961887 -0.0003709942     15739.46
        8255 -0.0004484419    0.9598944 -0.000351448     15757.24
        8260 -0.001125602    0.9581421 -0.0003677335     15778.08
        8265  0.000107914    0.9565492 -0.0003524061     15797.73
        8270  0.001650004    0.9545323 -0.0003372594     15819.34
        8275 -1.015949e-05    0.9528463 -0.0003486666     15835.84
        8280 7.779413e-05    0.9513969 -0.0003269687     15854.98
        8285  0.000507199    0.9495758 -0.0002983596     15867.03
        8290 0.0005974849    0.9479929 -0.0003039305     15880.02
        8295  0.001466205    0.9468791 -0.0002740531     15891.14
        8300  0.004116888    0.9454533 -0.0002378027     15820.64
      8300.2  0.004019435    0.9455334 0.0002501873     15809.92
      8300.4  0.003955293    0.9456104 0.0001230999     15800.53
      8300.6  0.003960366    0.9455679 4.683726e-05     15792.89
      8300.8  0.003941295    0.9455517 -8.106267e-05     15787.21
        8301  0.003859371    0.9455709 -0.0001709126     15782.81
      8301.2  0.003932494    0.9455455 -0.0002123252     15780.35
      8301.4  0.003935863    0.9454312 -0.0003415501     15778.13
      8301.6  0.003927424    0.9453819 -0.0004103125     15777.06
      8301.8  0.003962214    0.9452976 -0.000407275     15776.47
        8302  0.003883496    0.9452173 -0.0004079501     15774.91
      8302.2  0.004008639    0.9451053 -0.0004850502     15774.92
      8302.4  0.004023443    0.9450555 -0.0005929999     15773.57
      8302.6   0.00416811    0.9449096 -0.0005619875     15772.53
      8302.8  0.004342394    0.9447429 -0.0005851498     15770.31
        8303  0.004374942    0.9446557 -0.0004572371     15766.94
      8303.2  0.004434077    0.9445874 -0.0002272123     15762.08
      8303.4  0.004623313    0.9445438 -9.423708e-05     15757.02
      8303.6  0.004598481    0.9445611 0.0001358875     15748.55
      8303.8  0.004650816    0.9445804 0.0001459124     15738.43
        8304  0.004799654    0.9446961  0.000104812     15726.46
      8304.2  0.005053372    0.9446605 -0.0001609881     15710.08
      8304.4  0.005388902     0.944645 -0.0004817375     15688.97
      8304.6   0.00584791    0.9444516 -0.0004577627     15661.61
      8304.8  0.006333905    0.9443107 -0.0005890126     15625.66
        8305  0.006987295    0.9442943 -0.000618412      15578.6
      8305.2  0.007652882    0.9441737 -0.0003341375     15520.42
      8305.4  0.008310492    0.9439568 -0.0003237496     15451.34
      8305.6  0.008676516    0.9440434 -0.0001297493     15373.34
      8305.8  0.008809098    0.9440353 0.0002648749     15296.66
        8306  0.008763051      0.94407 0.0002338752     15226.04
      8306.2  0.008412983    0.9441687 0.0003450628     15167.64
      8306.4  0.007788611    0.9442305 0.0005206122     15126.18
      8306.6   0.00703296    0.9443114 0.0003479002     15104.47
      8306.8  0.006267542    0.9444864 0.0004329124        15104
        8307  0.005712022    0.9444471  0.000402237     15123.28
      8307.2  0.005198855    0.9445768 0.0001541253     15156.11
      8307.4  0.004892004    0.9446332 0.0003239378     15199.25
      8307.6  0.004608046    0.9446097 0.0004921876        15249
      8307.8  0.004358814    0.9447062 0.0005506132     15305.48
        8308  0.004032315    0.9449706 0.0009206748     15364.76
      8308.2  0.003786151    0.9450737 0.0008313119     15425.45
      8308.4   0.00355117    0.9453463 0.0005039743     15488.31
      8308.6  0.003446917    0.9453713 9.888624e-05     15554.36
      8308.8  0.003472278    0.9453738 -0.0005825256     15619.71
        8309  0.003729678    0.9451528 -0.000918375      15679.7
      8309.2  0.004225804    0.9448803 -0.0009353874     15729.61
      8309.4  0.004839232    0.9446366 -0.0008642996     15769.27
      8309.6  0.005344788    0.9446254 -0.0006204369     15794.96
      8309.8  0.005899647    0.9444613 -0.0003007748     15805.98
        8310   0.00643274    0.9443839 -0.0002073871     15807.34
      8310.2  0.006765803    0.9443959 -9.699888e-06     15801.72
      8310.4   0.00681125    0.9444595 5.098772e-05     15793.47
      8310.6  0.006832302    0.9444536 0.0001695497     15787.65
      8310.8  0.006683442    0.9444247 -1.220045e-05     15784.48
        8311  0.006464453    0.9445316 -0.0002568628      15786.3
      8311.2  0.006344046    0.9444498 -0.0004173752     15792.87
      8311.4  0.006494499    0.9442481 -0.0005432246     15800.21
      8311.6  0.006838533    0.9440908 -0.0003294618      15803.4
      8311.8  0.007130796     0.944097 5.205086e-05     15796.54
        8312  0.007199022    0.9441862 0.0005195378     15783.71
      8312.2  0.007096334    0.9442897 0.0006873747     15768.78
      8312.4  0.007146627    0.9445064 0.0005514621      15755.6
      8312.6  0.006822884    0.9446469 0.0003598367     15742.16
      8312.8  0.006667311    0.9446274 -6.255056e-05     15733.14
        8313  0.006656293    0.9445776 -0.0003686252     15726.42
      8313.2  0.007092722    0.9444564 -0.0004567877     15717.28
      8313.4  0.007648157     0.944352 -0.0005742002     15695.06
      8313.6  0.008297565    0.9442619 -0.0006567375      15658.7
      8313.8  0.009185285    0.9441182 -0.0006325498     15604.33
        8314  0.009931959     0.943931 -0.0005394492     15531.29
      8314.2   0.01047768     0.943846 -0.0001320991     15449.51
      8314.4   0.01064324    0.9438304 0.0003358137     15365.04
      8314.6   0.01044078    0.9440126 0.0009773758     15287.67
      8314.8  0.009989154    0.9441997  0.001390563     15225.66
        8315   0.00928064    0.9446279  0.001572388      15181.9
      8315.2  0.008514357    0.9449428  0.001709649     15163.25
      8315.4   0.00777173    0.9452705  0.001421787     15168.31
      8315.6  0.007141473    0.9455674  0.001110662     15189.85
      8315.8  0.006751771    0.9457653 0.0007698497     15224.72
        8316  0.006568472    0.9458314 0.0006039246     15266.11
      8316.2  0.006440676    0.9458864    0.0003961     15308.64
      8316.4  0.006368745    0.9460505 0.0004099252     15352.13
      8316.6  0.006208238    0.9460822 0.0005437248     15394.69
      8316.8  0.006060518    0.9461593 0.0004324625     15438.38
        8317   0.00591981    0.9463213 0.0004497747     15483.31
      8317.2  0.005854003    0.9463965 0.0002856497     15529.54
      8317.4  0.005805415     0.946442 0.0001183624     15573.69
      8317.6  0.005864688    0.9463878  5.54502e-05     15618.19
      8317.8   0.00599424     0.946416 0.0001666003     15661.79
        8318  0.006268683    0.9464408 0.0003092751     15703.24
      8318.2  0.006500686    0.9465753 0.0003584999     15738.64
      8318.4  0.006745813    0.9466353 0.0003131873     15769.32
      8318.6  0.007079026    0.9467028 0.0002262629     15794.56
      8318.8  0.007432778    0.9466914  0.000457025     15816.28
        8319  0.007732705    0.9467563 0.0004457878     15834.42
      8319.2  0.008010993    0.9470009 0.0005890378     15849.67
      8319.4   0.00820857    0.9470595 0.0007540998     15861.59
      8319.6  0.008411331    0.9471626 0.0006500502     15871.96
      8319.8  0.008724233    0.9473596 0.0007641626     15882.24
        8320  0.008925166    0.9475209 0.0007959125      15891.2
      8320.2  0.009084372    0.9476708 0.0007893625     15899.02
      8320.4  0.009330363    0.9477994  0.000802625     15906.35
      8320.6  0.009426215    0.9479911 0.0008083375      15912.2
      8320.8  0.009569743     0.948163 0.0008077001     15917.73
        8321  0.009671556    0.9483175 0.0008465751      15922.9
      8321.2  0.009736864    0.9484455  0.000919938     15927.83
      8321.4  0.009701475    0.9486683  0.001165838     15932.19
      8321.6  0.009655266     0.948899    0.0013692      15937.3
      8321.8  0.009537539    0.9492501  0.001426812     15942.29
        8322  0.009407376    0.9495409  0.001399325     15947.12
      8322.2  0.009435015    0.9498098    0.0012408     15952.62
      8322.4  0.009412387    0.9500184  0.001182413     15957.95
      8322.6  0.009386616    0.9502428   0.00132485     15963.55
      8322.8  0.009456307    0.9504868  0.001513488     15970.46
        8323  0.009439102    0.9508696  0.001709913     15977.92
      8323.2  0.009377678    0.9512292  0.001855562     15985.25
      8323.4  0.009507643    0.9516107   0.00180145     15993.54
      8323.6   0.00962943    0.9519713    0.0018015     16001.63
      8323.8  0.009751744    0.9523108  0.001830975     16008.99
        8324  0.009760035    0.9526704  0.001726775      16015.2
      8324.2  0.009868348    0.9530755   0.00182115     16022.18
      8324.4   0.01006857    0.9533527  0.001700538     16027.64
      8324.6   0.01022856    0.9537677  0.001991188     16031.97
      8324.8   0.01033175    0.9540308  0.002330788     16034.81
        8325   0.01052974    0.9546684  0.002659513     16038.51
      8325.2   0.01069286    0.9552173  0.003074275     16040.97
      8325.4   0.01079873    0.9558953  0.003040625      16043.1
      8325.6   0.01088248    0.9564903  0.003135512     16043.76
      8325.8   0.01100651    0.9571009  0.003027013     16044.81
        8326   0.01111792    0.9577257  0.003258763     16046.14
      8326.2   0.01133955    0.9583169  0.003693188     16047.81
      8326.4   0.01144026    0.9590973  0.003991388     16048.96
      8326.6   0.01145986    0.9600555  0.004476075     16049.54
      8326.8   0.01156814    0.9609188  0.004706913     16051.09
        8327   0.01174782    0.9618978  0.004816913     16052.29
      8327.2   0.01185559    0.9628628  0.005273838      16053.4
      8327.4   0.01195613     0.963909  0.005626376     16053.87
      8327.6   0.01222727    0.9651379  0.005964564     16055.97
      8327.8   0.01235554    0.9663989  0.006519113     16056.51
        8328   0.01253085    0.9676345  0.006856151     16057.26
      8328.2   0.01286449    0.9691243  0.007213126     16058.84
      8328.4   0.01296058    0.9706228  0.007779289     16059.02
      8328.6   0.01320275    0.9721694  0.008369464     16059.85
      8328.8   0.01356615    0.9738579  0.009256002     16061.41
        8329   0.01384292    0.9758199   0.01039116      16062.2
      8329.2   0.01403266    0.9780276    0.0117205      16062.7
      8329.4   0.01432585    0.9804823    0.0129815     16064.46
      8329.6   0.01458931    0.9832343   0.01438757     16064.98
      8329.8   0.01491748    0.9862051   0.01636392     16065.95
        8330   0.01522688    0.9895377   0.01900649     16066.72
      8330.2   0.01565814    0.9935735   0.02229854     16067.62
      8330.4   0.01613482    0.9984395   0.02625928     16069.01
      8330.6   0.01665809     1.004044   0.03082171     16069.99
      8330.8   0.01722075     1.010545   0.03687521     16070.95
        8331   0.01765914     1.018231   0.04467909     16070.82
      8331.2   0.01834148      1.02794   0.05409521     16071.23
      8331.4   0.01916998     1.039787   0.06559974     16071.71
      8331.6   0.02013298     1.053821   0.07788293     16072.38
      8331.8   0.02117687     1.070711   0.09155825     16072.67
        8332    0.0224821     1.090246    0.1055488     16073.51
      8332.2   0.02382543     1.113034    0.1185022     16073.72
      8332.4   0.02558062      1.13826    0.1298925     16073.97
      8332.6   0.02746583     1.165512    0.1379853     16074.31
      8332.8   0.02955791      1.19416    0.1443544     16074.33
        8333   0.03197848     1.223422    0.1481223     16074.58
      8333.2    0.0345113     1.253744    0.1483189     16074.08
      8333.4     0.037228      1.28401    0.1468967     16073.36
      8333.6   0.04010005     1.312815     0.143207     16073.18
      8333.8   0.04289945     1.340939    0.1385214     16073.39
        8334   0.04560394     1.368309    0.1341511     16073.24
      8334.2   0.04808312     1.394827    0.1281714     16073.06
      8334.4   0.05018332     1.420136    0.1208911     16073.15
      8334.6   0.05169679     1.443477    0.1119381     16072.85
      8334.8    0.0527007     1.465022    0.1029813     16072.27
        8335   0.05324616     1.484378   0.09447882      16072.1
      8335.2   0.05336979     1.502521   0.08636227     16072.56
      8335.4   0.05316752      1.51906   0.07816801     16072.87
      8335.6   0.05286389     1.534112   0.07024975      16073.2
      8335.8   0.05258624     1.546912     0.062861        16074
        8336   0.05228753     1.558721   0.05672478     16074.24
      8336.2    0.0521022     1.569348   0.05215196     16074.66
      8336.4   0.05222289     1.579492   0.04825788     16075.95
      8336.6     0.052533     1.588634   0.04501756     16076.95
      8336.8   0.05306421     1.597327   0.04219476     16077.86
        8337   0.05363185     1.605362    0.0406906     16078.93
      8337.2   0.05453244     1.613248   0.04030983     16079.72
      8337.4   0.05564605     1.621186    0.0418173     16080.61
      8337.6   0.05698435     1.629575   0.04426984     16081.79
      8337.8   0.05845463     1.638816   0.04740289     16082.67
        8338   0.06011802     1.648664   0.05116012     16084.24
      8338.2   0.06202603     1.659109   0.05461897     16085.87
      8338.4   0.06411648     1.670503   0.05788413     16087.37
      8338.6    0.0663729     1.682511   0.06073025     16088.21
      8338.8   0.06878497     1.694971   0.06276724     16089.36
        8339    0.0713763     1.707693   0.06432324     16090.29
      8339.2   0.07417955     1.720717   0.06507709        16091
      8339.4    0.0772139      1.73397   0.06463014     16091.89
      8339.6   0.08054835     1.747033   0.06333587      16092.5
      8339.8   0.08416305     1.759397   0.06138633     16093.23
        8340   0.08814416     1.771386   0.05964647     16093.82
      8340.2   0.09246352     1.783079   0.05842386     16094.19
      8340.4   0.09746981      1.79475   0.05773792     16094.99
      8340.6    0.1030666     1.806136    0.0567059     16095.51
      8340.8     0.109067     1.817576   0.05646771     16095.69
        8341    0.1158182     1.828444   0.05700721     16096.63
      8341.2     0.123229     1.839924   0.05831593      16097.2
      8341.4    0.1317257     1.851742   0.06201412     16097.44
      8341.6    0.1413877     1.864229   0.06525926     16097.77
      8341.8    0.1524583     1.878055   0.06899617     16098.22
        8342    0.1645958     1.892131   0.07277567     16099.39
      8342.2    0.1776516     1.906939   0.07730225     16099.63
      8342.4    0.1919357     1.922449   0.08257712     16100.96
      8342.6    0.2081309     1.939897   0.08775732     16100.87
      8342.8    0.2254177     1.958193   0.09380392     16101.87
        8343    0.2435503     1.977145   0.09808295     16103.14
      8343.2    0.2623446     1.997492    0.1023419     16103.81
      8343.4    0.2814628     2.018363    0.1068944     16103.98
      8343.6     0.300914     2.040067    0.1107311     16104.59
      8343.8    0.3206691      2.06266    0.1144386     16104.85
        8344    0.3402054     2.086077    0.1175911     16104.82
      8344.2    0.3598423     2.109914    0.1210428     16105.51
      8344.4    0.3792985     2.134139    0.1233538     16105.45
      8344.6    0.3991257     2.159494    0.1256762     16106.41
      8344.8    0.4186231      2.18476    0.1276793     16106.88
        8345    0.4380028     2.210455    0.1285467     16107.27
      8345.2    0.4575869     2.236283    0.1307442     16107.75
      8345.4    0.4777715     2.262332    0.1324922     16108.54
      8345.6    0.4985886     2.289356    0.1333795     16109.18
      8345.8    0.5201041     2.316449     0.133617     16110.71
        8346     0.541396     2.342986    0.1326946     16111.01
      8346.2    0.5631683     2.369225    0.1321396     16112.49
      8346.4    0.5852487     2.395511    0.1312843     16113.18
      8346.6    0.6084539     2.422161    0.1301951     16114.35
      8346.8    0.6322784     2.448014    0.1264819     16115.36
        8347    0.6567528     2.473381    0.1210039     16116.36
      8347.2      0.68048     2.496697    0.1157584     16116.95
      8347.4    0.7047809     2.518964     0.109562     16118.04
      8347.6    0.7293074     2.540621    0.1035583     16118.55
      8347.8     0.754906     2.561031   0.09656115     16119.13
        8348    0.7809531     2.579544   0.08753191     16119.97
      8348.2     0.806817     2.596213   0.07672801     16120.02
      8348.4    0.8323205     2.610646   0.06753395     16120.19
      8348.6    0.8576622     2.622413    0.0583846     16119.91
      8348.8    0.8837165     2.633571   0.05010455      16119.9
        8349      0.91007      2.64292   0.04280304     16119.42
      8349.2    0.9367002      2.65073   0.03485096     16119.85
      8349.4    0.9634966     2.656656   0.02672596     16120.07
      8349.6    0.9908088     2.661451   0.02017799     16119.63
      8349.8     1.018835     2.664301   0.01460391     16119.08
        8350     1.047489     2.666872  0.007986421     16118.99
      8350.2     1.076837     2.668339  0.005834279     16118.49
      8350.4     1.107013     2.667841   0.00122787     16119.07
      8350.6     1.138215     2.668968 -0.001425529     16118.91
      8350.8     1.170364     2.667854 -0.003709685     16119.73
        8351     1.202526     2.667199 -0.008941267     16119.49
      8351.2     1.235169     2.664873  -0.01141524     16120.22
      8351.4     1.266816     2.661815  -0.01414494     16120.24
      8351.6     1.298693     2.658722  -0.01479816     16120.62
      8351.8     1.331652     2.655883  -0.01454677     16121.02
        8352     1.363847     2.653034  -0.01438866     16120.39
      8352.2     1.394594     2.650178  -0.01515014     16120.55
      8352.4     1.423908     2.647211   -0.0145108     16121.34
      8352.6     1.451658     2.643763  -0.01411022     16121.28
      8352.8     1.478415     2.641426  -0.01288443      16121.8
        8353     1.503737      2.63889  -0.01045173     16122.38
      8353.2     1.526968     2.636904 -0.008424881     16122.59
      8353.4     1.545771     2.635401 -0.004989553     16122.71
      8353.6     1.561164     2.634686 0.0001489068     16123.17
      8353.8     1.572578     2.634898  0.003861408     16123.03
        8354     1.579497     2.637023  0.008029923     16123.83
      8354.2     1.581426      2.63849   0.01381577     16124.58
      8354.4     1.578361      2.64111   0.01656675     16124.71
      8354.6     1.570017     2.645951   0.02148622     16126.13
      8354.8     1.556764     2.650276   0.02744669      16126.7
        8355     1.539493     2.655679   0.03054874     16127.48
      8355.2      1.51836     2.663067   0.03458001     16127.53
      8355.4     1.493756      2.67039   0.03739977      16129.1
      8355.6     1.467087      2.67794   0.03892693     16129.89
      8355.8     1.438717     2.685599   0.03977155     16130.49
        8356     1.408302     2.694209    0.0405865     16131.84
      8356.2     1.377961     2.702207   0.04089558     16132.58
      8356.4     1.347995      2.71041   0.03873073      16133.4
      8356.6     1.318525     2.718316   0.03732628     16134.01
      8356.8     1.289473     2.725193   0.03449808     16134.72
        8357     1.261364     2.732068   0.03020027      16135.2
      8357.2     1.234845     2.738008   0.02606609     16136.75
      8357.4      1.21107     2.742476   0.02106169     16137.23
      8357.6     1.189202     2.746046   0.01643338     16137.96
      8357.8     1.169417     2.748917   0.01214539     16138.89
        8358     1.150946     2.751155  0.006602144     16140.05
      8358.2     1.134264     2.752192  0.003395528     16140.63
      8358.4     1.119338     2.751328 -0.001920945     16141.03
      8358.6     1.106847     2.751634 -0.006125455     16142.79
      8358.8     1.095796     2.749618 -0.008619183     16143.44
        8359     1.086032     2.747292  -0.01321034     16143.96
      8359.2      1.07725     2.744432   -0.0160696     16144.77
      8359.4     1.070044     2.741066  -0.01840647     16145.64
      8359.6     1.063835     2.736762  -0.02059974     16146.72
      8359.8      1.05873     2.732567   -0.0221275     16148.02
        8360     1.054273     2.727953   -0.0221441     16148.04
      8360.2     1.050422     2.723364  -0.02295109     16148.62
      8360.4     1.046951     2.719047  -0.02205267     16149.13
      8360.6     1.043935     2.714206  -0.02154112     16149.98
      8360.8     1.041227     2.710311  -0.02043018     16150.19
        8361     1.038686     2.706131  -0.01890667      16150.6
      8361.2     1.036386     2.702703  -0.01837395     16151.45
      8361.4     1.033997      2.69908  -0.01836121      16152.1
      8361.6     1.031846     2.695611  -0.01750474     16153.28
      8361.8     1.029609     2.691442  -0.01670094     16153.91
        8362     1.027575     2.688699  -0.01715122     16155.17
      8362.2     1.025421      2.68572  -0.01557015     16155.95
      8362.4     1.023261      2.68189   -0.0164013     16156.86
      8362.6     1.021169     2.678986  -0.01731873     16157.94
      8362.8     1.019042     2.675578  -0.01760645     16158.77
        8363     1.016929     2.671865  -0.01901179     16159.78
      8363.2     1.014782     2.667805   -0.0203816      16160.9
      8363.4      1.01257     2.663776  -0.02201046     16162.12
      8363.6     1.010458     2.659273  -0.02230874     16163.11
      8363.8     1.008614     2.654256  -0.02376777     16163.55
        8364     1.006943     2.649958  -0.02332503     16164.68
      8364.2     1.005255     2.644762  -0.02472553     16165.94
      8364.4     1.003919     2.640613  -0.02489809     16166.58
      8364.6     1.003071     2.634476  -0.02493184     16168.21
      8364.8     1.002289      2.63004  -0.02625687     16169.28
        8365     1.001966     2.624816  -0.02351535     16170.76
      8365.2     1.001843     2.619607  -0.02295963     16171.13
      8365.4     1.002129     2.615663  -0.02098112     16172.11
      8365.6     1.002922     2.611672  -0.01926054      16173.2
      8365.8     1.004006     2.608032  -0.01813966     16174.16
        8366      1.00567     2.604199  -0.01645505     16176.61
      8366.2     1.007364     2.601152  -0.01549226     16177.22
      8366.4     1.009492     2.598508  -0.01308612     16178.12
      8366.6     1.011848     2.595638  -0.01250227     16178.89
      8366.8     1.014684      2.59373  -0.01043826      16180.1
        8367     1.017494      2.59115 -0.009422999     16180.78
      8367.2     1.020378     2.590157 -0.008886082     16181.44
      8367.4     1.023507     2.588099 -0.006153551     16182.44
      8367.6     1.026645     2.586621 -0.006823123      16183.6
      8367.8     1.029593     2.586227 -0.005882637     16184.96
        8368     1.032347     2.584699 -0.005536289     16185.78
      8368.2     1.035003     2.583393 -0.006486098     16187.01
      8368.4     1.037485     2.582192 -0.005362837     16187.99
      8368.6     1.039769     2.581038 -0.005030437     16189.64
      8368.8     1.041672     2.580409 -0.004679123     16190.96
        8369     1.043064     2.579369 -0.003565712     16191.71
      8369.2      1.04418     2.578449 -0.003112647     16192.84
      8369.4     1.044578     2.578186 -0.001722261     16193.77
      8369.6     1.044473     2.577919 -0.0007415732     16194.64
      8369.8     1.043837     2.577991 0.0002081892     16195.79
        8370     1.042714     2.577855  0.001128762     16196.09
      8370.2     1.041174     2.578352 0.0009535394     16196.73
      8370.4     1.039372     2.578822  0.001991877     16197.94
      8370.6     1.036991     2.578754  0.002965841      16198.2
      8370.8     1.034162     2.579449  0.004795778     16199.47
        8371     1.031025     2.580725  0.006308015     16200.91
      8371.2     1.027508     2.582658  0.007747913     16200.42
      8371.4      1.02382       2.5838  0.008258352     16201.84
      8371.6     1.019866     2.585647   0.00960314      16202.7
      8371.8     1.015725     2.587332   0.01111739     16203.31
        8372     1.011601     2.590341   0.01221859     16204.13
      8372.2     1.007357     2.592694   0.01371776     16205.06
      8372.4     1.002931     2.595422   0.01388809     16205.28
      8372.6    0.9984183     2.598306   0.01609113     16205.76
      8372.8    0.9939867     2.601451   0.01690569     16207.08
        8373    0.9894566     2.605567   0.01803528     16207.88
      8373.2    0.9848016     2.608947    0.0194327     16208.26
      8373.4    0.9801214     2.612734   0.01867414     16209.07
      8373.6    0.9753963     2.616997   0.01962058      16209.7
      8373.8    0.9705352     2.620506   0.02076775     16210.63
        8374    0.9656707     2.624643   0.02131053     16210.84
      8374.2     0.960778     2.629348   0.02329289     16211.36
      8374.4    0.9558348     2.634046   0.02409698     16211.72
      8374.6    0.9506421     2.639141   0.02473532     16212.34
      8374.8    0.9455533     2.643921   0.02417455      16213.4
        8375    0.9404263     2.649136   0.02430265      16213.8
      8375.2    0.9351822     2.653385   0.02469055     16214.01
      8375.4    0.9301318     2.658583   0.02506573     16214.48
      8375.6    0.9250031     2.663673   0.02771743     16215.23
      8375.8    0.9196794     2.669189   0.02812698     16215.87
        8376     0.914499     2.675559   0.02909881     16216.56
      8376.2    0.9093489     2.681084   0.02904665     16217.43
      8376.4    0.9043785     2.686952   0.02888925     16218.27
      8376.6    0.8996727     2.692426   0.02923498     16218.74
      8376.8    0.8948684     2.698671   0.03022835      16219.7
        8377    0.8902323     2.704472   0.03048772     16221.02
      8377.2     0.885539     2.711135   0.03003539     16221.43
      8377.4    0.8813991     2.716817   0.03059387     16223.07
      8377.6    0.8773474     2.722699   0.02963649     16223.57
      8377.8    0.8733383     2.728948   0.03015635      16223.4
        8378    0.8697252     2.734844   0.03061837     16224.97
      8378.2    0.8661651     2.740942   0.02920113     16225.78
      8378.4      0.86283     2.747194   0.02954751     16226.68
      8378.6    0.8596398     2.752308   0.02847904     16226.97
      8378.8    0.8566035     2.758482   0.02813766     16227.86
        8379    0.8537266     2.763725   0.02890747     16228.78
      8379.2    0.8507779     2.769704   0.02759196      16229.6
      8379.4    0.8480458     2.775434   0.02786013      16230.5
      8379.6    0.8452491     2.780556   0.02609252     16230.91
      8379.8    0.8427305     2.786013   0.02467735     16232.06
        8380    0.8402551     2.790578     0.024105     16233.23
      8380.2    0.8378584     2.795176   0.02229829     16233.96
      8380.4    0.8355612      2.79984   0.02102771     16234.28
      8380.6    0.8334993     2.803852   0.01963942     16235.37
      8380.8    0.8314312       2.8074     0.018396      16236.2
        8381    0.8296004     2.810888   0.01670107     16237.87
      8381.2    0.8276331     2.814556   0.01506762     16237.99
      8381.4    0.8259292     2.817212   0.01245002      16238.3
      8381.6    0.8243694     2.819454   0.01082953     16238.98
      8381.8    0.8228302     2.820848  0.009017721     16240.16
        8382    0.8214401      2.82322   0.00666796      16240.9
      8382.2    0.8202184     2.824427  0.005332969     16242.05
      8382.4    0.8191343     2.824788  0.002155171     16243.16
      8382.6    0.8181552     2.825114  8.47352e-05     16243.91
      8382.8    0.8173361     2.824944  -0.00116033     16244.53
        8383    0.8164797     2.824494 -0.003879704      16244.9
      8383.2    0.8158685      2.82386 -0.006205626      16245.8
      8383.4    0.8154161      2.82201 -0.006902828     16247.14
      8383.6    0.8151465      2.81998 -0.008784078     16248.09
      8383.8    0.8148828     2.818972  -0.01034653      16248.5
        8384    0.8148642     2.816833  -0.01176828     16249.66
      8384.2    0.8149408     2.813733  -0.01444528      16250.2
      8384.4    0.8151194     2.810565  -0.01541709     16251.53
      8384.6    0.8153164     2.807416  -0.01620241     16251.56
      8384.8    0.8156992     2.804499  -0.01683684      16252.4
        8385    0.8162605     2.800771   -0.0177391        16253
      8385.2    0.8170209     2.797096  -0.01925619     16253.97
      8385.4    0.8176791     2.793225  -0.02167924     16254.04
      8385.6     0.818457     2.789094   -0.0228177     16255.08
      8385.8    0.8192255     2.783428  -0.02429898     16255.36
        8386    0.8201223     2.778841  -0.02644579     16256.17
      8386.2    0.8211115     2.773785  -0.02626309     16256.25
      8386.4    0.8224078     2.767938  -0.02794369     16257.32
      8386.6    0.8235849     2.762417  -0.02845699     16257.99
      8386.8    0.8248969     2.756486  -0.02922386     16259.19
        8387    0.8259742      2.75102  -0.02981905     16259.04
      8387.2    0.8275417     2.744559  -0.03003319     16260.54
      8387.4    0.8290181     2.738562  -0.03125046      16261.2
      8387.6    0.8305309      2.73246   -0.0305652     16261.66
      8387.8    0.8321047     2.726019  -0.03123241     16262.31
        8388    0.8336437     2.720106  -0.03116104     16263.38
      8388.2    0.8352319     2.713576  -0.03111854     16264.27
      8388.4    0.8369812     2.707531  -0.03116201     16265.29
      8388.6    0.8386303     2.701125  -0.03059247     16266.08
      8388.8    0.8403006     2.695177  -0.03006281     16266.88
        8389    0.8422104     2.689102  -0.02847192     16268.36
      8389.2    0.8438475     2.683481  -0.02771006     16268.34
      8389.4    0.8455197     2.678347  -0.02668755     16268.92
      8389.6    0.8471199     2.673009   -0.0264821      16269.4
      8389.8    0.8487259     2.667752   -0.0261409     16269.36
        8390    0.8503287     2.662295  -0.02524974     16269.53
      8390.2    0.8521201     2.657434  -0.02512236     16269.97
      8390.4    0.8539984     2.652809  -0.02366302     16271.09
      8390.6    0.8556426     2.647654   -0.0235672     16271.28
      8390.8    0.8573806     2.643365  -0.02296974      16271.9
        8391    0.8592298     2.638581  -0.02241889      16272.8
      8391.2    0.8609491     2.634433  -0.02251331     16272.78
      8391.4    0.8627842     2.629719  -0.02182124     16273.31
      8391.6    0.8646646     2.625354  -0.02133151     16273.73
      8391.8      0.86655     2.621124   -0.0202928     16274.57
        8392    0.8686372     2.617368  -0.01940652     16275.31
      8392.2    0.8707953     2.613485  -0.01881701     16275.55
      8392.4    0.8729711     2.609829  -0.01853892     16276.44
      8392.6    0.8753046      2.60607  -0.01706199     16277.19
      8392.8    0.8775816     2.602537  -0.01684384     16277.37
        8393    0.8798888     2.599835  -0.01553745     16278.23
      8393.2    0.8823148     2.596354  -0.01532511     16278.64
      8393.4    0.8848134      2.59364  -0.01552424     16279.71
      8393.6    0.8876075     2.590277  -0.01439784     16280.41
      8393.8    0.8903381     2.587416  -0.01384218     16281.17
        8394    0.8931509     2.584836  -0.01217304     16282.06
      8394.2    0.8959938     2.582566  -0.01125615     16283.01
      8394.4    0.8990227     2.580538  -0.01029303     16284.35
      8394.6    0.9021398     2.578411 -0.008914912        16285
      8394.8    0.9053283     2.576601 -0.008588886     16285.93
        8395    0.9084908     2.575434 -0.007695849     16286.31
      8395.2    0.9116402     2.573667 -0.007118173     16286.36
      8395.4    0.9149244     2.572254 -0.006179847     16286.83
      8395.6     0.918398     2.570907 -0.004638549     16287.99
      8395.8    0.9215852     2.570491 -0.003909698     16287.78
        8396    0.9249288     2.569956 -0.002757501     16288.47
      8396.2    0.9282481     2.569127 -0.003123136     16289.24
      8396.4    0.9316991     2.568701 -0.002270261        16291
      8396.6    0.9351224     2.567992 -0.001626298     16292.01
      8396.8    0.9386748      2.56814 -0.0003911982     16293.42
        8397    0.9422375     2.567826  0.000608413     16293.95
      8397.2    0.9457732     2.568388   0.00086645     16294.91
      8397.4     0.949272     2.568479 0.0008426988     16295.84
      8397.6    0.9527507     2.568833  0.000214325     16295.69
      8397.8    0.9562491       2.5685 0.0002135614     16295.61
        8398    0.9596985     2.568559 -0.0004012736     16296.57
      8398.2    0.9630579      2.56865 0.0003821363     16296.78
      8398.4     0.966266     2.568512 -0.0002736252     16297.12
      8398.6     0.969448     2.568806 -0.0003648627     16297.17
      8398.8    0.9727086      2.56834 -0.0004832634     16297.56
        8399    0.9761512     2.568358 -0.0009520246     16298.45
      8399.2    0.9792949     2.568126 -0.0007184261     16299.25
      8399.4    0.9823554     2.568044 -0.001293839     16299.63
      8399.6    0.9852368     2.567765 -0.002301452     16300.79
      8399.8     0.988182     2.567323 -0.003118158     16301.54
        8400    0.9909186     2.566747 -0.003147819     16302.13
        8401     1.004484     2.563667 -0.003189528     16305.12
        8402     1.017615     2.559911 -0.002754351     16308.36
        8403     1.031029     2.557009 -0.001873637     16311.65
        8404     1.045052     2.555729 6.756284e-05     16316.51
        8405     1.059443     2.556172  0.002292276     16320.34
        8406     1.073423     2.560181  0.004287323     16324.16
        8407     1.085155     2.566178  0.006134924     16328.15
        8408     1.093912     2.572879   0.00684415     16333.63
        8409     1.098937     2.580712  0.006826516     16338.19
        8410     1.101069     2.587558  0.006544656     16342.81
        8411     1.100377     2.593484  0.006136223      16345.8
        8412     1.097264     2.599057  0.006384189     16349.59
        8413     1.092434     2.605257  0.007374542     16354.73
        8414     1.086179     2.613094  0.008681801     16359.23
        8415     1.079383     2.622983   0.01004138     16363.83
        8416     1.072223     2.633785    0.0110845      16367.6
        8417     1.065284     2.645422   0.01111126     16372.25
        8418     1.058517     2.657432   0.01105912     16377.38
        8419      1.05177     2.667428   0.01079833     16382.09
        8420     1.044695     2.678021    0.0104326     16385.38
        8421     1.037405     2.688616   0.01095226     16388.84
        8422       1.0299     2.699163   0.01162584     16393.15
        8423     1.021898     2.711237   0.01245535     16395.75
        8424     1.014948     2.724524   0.01349041     16398.04
        8425     1.009156     2.738437    0.0140148     16399.82
        8426     1.004127     2.753124    0.0142039     16402.04
        8427    0.9997829     2.767296    0.0135337     16405.04
        8428     0.995915      2.78134   0.01228785     16408.95
        8429    0.9927944     2.792572   0.01021601      16412.7
        8430    0.9896937     2.802276  0.007312857     16415.54
        8431    0.9871635      2.80816  0.004100633     16420.37
        8432    0.9858783     2.810591 0.0001073201     16425.49
        8433    0.9852979     2.808974   -0.0036013     16429.46
        8434    0.9854786     2.802705 -0.007392486     16433.07
        8435    0.9861981     2.793755  -0.01068505     16436.99
        8436    0.9870298     2.781021  -0.01305517     16441.16
        8437    0.9879526     2.766234  -0.01485475     16442.66
        8438    0.9888974     2.750484  -0.01602991     16445.84
        8439     0.989631     2.734336    -0.016606     16450.65
        8440    0.9904491     2.716902  -0.01704957     16456.26
        8441    0.9910121      2.69981    -0.017209     16460.84
        8442     0.991354     2.682286  -0.01691769     16464.44
        8443    0.9911705       2.6655  -0.01632236     16468.15
        8444    0.9906285     2.649231  -0.01493984     16472.15
        8445    0.9903016     2.634521  -0.01336397     16475.75
        8446    0.9901472     2.622527  -0.01174346     16478.42
        8447    0.9901113     2.612044  -0.01089265      16480.5
        8448    0.9899213     2.602257  -0.01100701     16484.23
        8449     0.989885      2.59095  -0.01191412     16489.08
        8450    0.9896705     2.578499   -0.0133355     16493.85
        8451    0.9893359     2.564387  -0.01459023     16497.93
        8452    0.9890453     2.548915  -0.01553465     16502.01
        8453    0.9890047     2.532589   -0.0156519     16506.31
        8454    0.9890657      2.51636  -0.01510356     16509.55
        8455    0.9895739      2.50178  -0.01382128     16513.53
        8456    0.9901216     2.488501  -0.01179087     16517.37
        8457    0.9908883     2.477304 -0.009464999     16520.61
        8458    0.9920626     2.469197  -0.00661161     16525.32
        8459     0.992924      2.46392 -0.003512828     16529.15
        8460    0.9932471     2.462054 -0.0007290485     16532.57
        8461    0.9934355     2.463253  0.002032381     16536.38
        8462    0.9933165     2.466281  0.004551719     16541.04
        8463    0.9929713     2.472049  0.006519051     16544.15
        8464    0.9919887     2.480261  0.008206716     16547.08
        8465    0.9908063     2.489329    0.0094585     16550.58
        8466    0.9890239     2.499107   0.01041551     16555.03
        8467    0.9869158     2.509883   0.01116441     16558.48
        8468    0.9836943     2.521923   0.01150761     16561.97
        8469    0.9795578     2.533987   0.01145991     16565.13
        8470    0.9750563     2.545138   0.01066682      16568.8
        8471    0.9700983     2.555723  0.009423892     16571.05
        8472     0.965291     2.564591  0.007868921     16573.44
        8473    0.9607261     2.571682  0.005940962      16577.6
        8474    0.9567282     2.576614  0.004052553     16581.39
        8475    0.9530352     2.579487  0.001842062     16585.29
        8476    0.9496724     2.580801 7.441637e-05     16587.45
        8477    0.9472202     2.579051 -0.001537254     16590.41
        8478    0.9460382     2.576911 -0.002595541     16594.11
        8479    0.9461592     2.573338 -0.002632698     16597.08
        8480    0.9473024     2.570419 -0.001894252     16601.55
        8481    0.9496821      2.56852 -0.0003699023     16607.91
        8482    0.9529162     2.569334  0.001808482     16612.76
        8483    0.9572388     2.571858  0.004645627     16617.15
        8484    0.9620881     2.577653  0.007880133     16621.76
        8485    0.9670167     2.587102   0.01153361     16624.11
        8486    0.9722753     2.600855   0.01497986     16625.86
        8487    0.9774866     2.617993   0.01765528     16628.67
        8488    0.9829938     2.637572   0.01933368     16632.99
        8489    0.9883303     2.657723   0.01971928     16636.26
        8490     0.993253     2.678189   0.01907415     16639.42
        8491     0.997824      2.69687   0.01764777     16644.17
        8492     1.001866     2.713869    0.0156445     16649.47
        8493      1.00562     2.728314   0.01302035     16654.46
        8494     1.009056     2.740767   0.01035256     16657.73
        8495     1.012219     2.748951  0.007957298     16659.94
        8496     1.014896     2.755279  0.005390272     16663.28
        8497     1.016929     2.760144  0.003721983     16666.44
        8498     1.018863     2.762329  0.002152563      16669.2
        8499     1.020128     2.763839 0.0006359575     16671.68
        8500      1.02147     2.763889 -0.0008400351     16674.85
        8501     1.023149     2.762687 -0.002430853        16680
        8502     1.024993     2.758968 -0.004243971     16685.54
        8503     1.026284     2.754116 -0.006416109     16689.24
        8504     1.027548     2.746913 -0.008424773      16693.1
        8505     1.029019     2.737023  -0.01067633      16696.6
        8506     1.030619     2.725269  -0.01288888     16699.65
        8507     1.032529      2.71141  -0.01473578     16703.16
        8508     1.034419     2.695358  -0.01670981     16706.67
        8509     1.036321      2.67808  -0.01845199     16710.17
        8510     1.037955      2.65843  -0.02016246     16714.21
        8511     1.039551     2.637602  -0.02154934      16718.3
        8512     1.041353     2.614708  -0.02253485     16722.85
        8513     1.044234     2.591883  -0.02329138     16727.76
        8514     1.048721     2.568291  -0.02371042     16729.41
        8515     1.052872     2.544437  -0.02418908      16716.3
        8516     1.054619     2.519866  -0.02410865     16694.06
        8517      1.05573     2.495126  -0.02356799     16687.35
        8518     1.056135     2.471856  -0.02211191     16686.44
        8519      1.05559     2.450165  -0.02011122     16687.02
        8520     1.055208     2.431419  -0.01760481      16686.9
        8521     1.053487     2.414681  -0.01455571     16688.95
        8522     1.050595     2.401437   -0.0113946     16692.71
        8523     1.047783     2.391942 -0.007823943     16697.66
        8524     1.046171      2.38584 -0.004235243     16704.65
        8525     1.044868     2.383386 -0.0007382693      16707.9
        8526     1.041546     2.384496  0.002531189     16709.72
        8527      1.03694     2.388989  0.005538473     16714.16
        8528     1.033177     2.395965  0.008092361     16722.29
        8529     1.029462     2.405539  0.009921449     16728.73
        8530     1.025355     2.416865   0.01140403     16730.87
        8531     1.020975     2.428675   0.01242526     16731.59
        8532     1.017795     2.441581    0.0128639      16735.5
        8533     1.013698     2.455241   0.01312626     16738.97
        8534     1.007672     2.468321   0.01276609      16741.4
        8535     1.002175      2.48118   0.01181666     16747.82
        8536    0.9979516     2.492645   0.01097075      16752.7
        8537    0.9939774     2.502507  0.009883303     16754.89
        8538     0.991053     2.512204  0.008904038     16753.66
        8539    0.9877521     2.520713  0.007911673     16755.95
        8540    0.9832958     2.528262  0.006630688     16764.15
        8541    0.9803803     2.534154  0.005222557     16768.66
        8542    0.9790288     2.538727  0.003668647     16770.65
        8543    0.9772294     2.541603  0.002233328     16775.74
        8544    0.9766812     2.542936  0.001010859     16781.65
        8545    0.9779786     2.543087 -2.953136e-05     16785.35
        8546    0.9786771      2.54277 -0.0009588553     16787.58
        8547    0.9789536     2.541485 -0.001657506     16791.28
        8548    0.9795139     2.539101 -0.002245358     16795.83
        8549    0.9800993     2.536457 -0.002635933      16800.8
        8550    0.9815547     2.533789    -0.002784     16804.63
        8551    0.9827753     2.530941 -0.002812649     16809.79
        8552    0.9840016     2.527965 -0.002960697     16812.06
        8553    0.9860975     2.525207 -0.003184455     16813.65
        8554    0.9881762     2.521946 -0.003351897     16817.99
        8555     0.989682     2.518204  -0.00363016     16822.19
        8556    0.9917676     2.514557 -0.003894974     16825.64
        8557    0.9939674     2.510686  -0.00410655     16829.81
        8558    0.9953613     2.506366 -0.004385916      16835.2
        8559    0.9964526     2.501777 -0.004213141     16838.24
        8560    0.9971373     2.497014  -0.00375552     16838.07
        8561    0.9980345     2.493833  -0.00309686     16841.18
        8562    0.9988472     2.491344 -0.001607461     16847.03
        8563     1.000462      2.48939 -0.0003457484     16852.44
        8564     1.001354     2.490584  0.001258682     16855.37
        8565       1.0013      2.49245  0.003162372     16859.04
        8566     1.001218     2.496379  0.004782725     16864.89
        8567     1.000997     2.502039  0.006494143     16868.11
        8568     1.001529     2.509715  0.007937618     16869.15
        8569     1.001602     2.518427  0.009103087     16872.64
        8570     1.001589     2.528129  0.009517057     16878.58
        8571     1.002725     2.538452  0.009546336      16885.2
        8572     1.003989     2.547783  0.009076314     16893.25
        8573     1.005017     2.556612  0.008345018     16899.71
        8574     1.006496     2.564434   0.00757978     16902.19
        8575     1.007841     2.571832  0.006896756     16904.32
        8576     1.008096     2.578102  0.006084873     16908.54
        8577     1.008159     2.584199  0.005155331     16912.04
        8578     1.008936     2.588774  0.004386813     16917.74
        8579     1.010153     2.592453  0.003251586     16923.71
        8580     1.011181     2.595649   0.00235829     16927.47
        8581      1.01246     2.597206  0.001423679     16931.61
        8582     1.013208     2.598207 0.0003387346     16936.55
        8583     1.013418     2.598148 -0.0006783129     16940.93
        8584     1.014208     2.597004 -0.001815865     16942.92
        8585     1.015331     2.594492 -0.002874963     16944.39
        8586     1.015692     2.590944 -0.004208302     16945.61
        8587     1.015972     2.586648 -0.005459234     16946.91
        8588     1.017115     2.580171 -0.006688339     16948.55
        8589     1.018113     2.572655 -0.007959245     16952.16
        8590     1.018719      2.56419 -0.008920892     16959.78
        8591     1.019021     2.554811  -0.00987736     16964.66
        8592     1.017997     2.544487  -0.01056845      16965.7
        8593     1.017498     2.533146  -0.01121731     16965.63
        8594     1.017794     2.521916  -0.01150796     16968.89
        8595     1.016996     2.509942  -0.01161557     16973.02
        8596     1.016005     2.498455  -0.01153149     16976.39
        8597     1.015194     2.486684  -0.01122643     16979.43
        8598     1.013973      2.47579  -0.01093626     16980.32
        8599     1.012714     2.465036  -0.01047427     16983.63
        8600     1.011025      2.45471 -0.009938206     16989.47
        8601     1.009145     2.444787 -0.009188575     16994.18
        8602     1.007196     2.436038 -0.008267342     16994.81
        8603     1.005068     2.428282   -0.0072521     16998.18
        8604     1.003195     2.421641 -0.006267682     17005.73
        8605     1.001632     2.415778 -0.005412519     17012.95
        8606    0.9998243     2.410967 -0.004500245     17016.03
        8607    0.9980775     2.406632 -0.003639708     17020.44
        8608    0.9967974      2.40364  -0.00278161     17024.62
        8609    0.9951052     2.401219  -0.00180491     17027.67
        8610    0.9934565      2.39984 -0.001106907     17031.63
        8611    0.9930059     2.399412 -0.0004511924     17035.62
        8612    0.9931455     2.399212 -0.0002237064     17040.53
        8613    0.9934912     2.399415 -9.097297e-05     17042.91
        8614    0.9933837     2.398946 -6.558756e-05     17044.72
        8615    0.9931065     2.399048 -0.0001577189     17049.08
        8616    0.9927669      2.39895 -2.376357e-05     17051.38
        8617    0.9930616     2.398784 -0.000203434     17052.23
        8618    0.9927191     2.398851 -0.000260415      17054.1
        8619     0.992573     2.398234 -0.0002357636     17055.38
        8620    0.9928907     2.397908 -0.0003532825     17055.69
        8621    0.9933436     2.397841 -0.0002472919     17050.87
        8622    0.9946532     2.397437 -0.0001836721     17030.62
        8623    0.9961495     2.397245 -0.0003716554     16947.08
        8624    0.9956263     2.397174 -0.0001895795     16814.07
        8625    0.9948073     2.396354 -0.0002785316     16840.89
        8626     0.993965     2.396679 -0.0004190579     16899.64
        8627    0.9952762     2.396131 -0.0001851825     17049.88
        8628    0.9967077     2.395498 -0.0001229368     17088.59
        8629    0.9977272     2.395613 0.0003172517      17098.5
        8630    0.9988102     2.396187 0.0007307681     17103.99
        8631    0.9997128       2.3974   0.00101941     17110.64
        8632     1.000545     2.398421  0.001325419     17115.68
        8633      1.00117     2.399691  0.001379499     17118.64
        8634     1.001144     2.401489  0.001583965     17120.15
        8635     1.001048     2.402918   0.00186292      17124.3
        8636     1.000808     2.404756    0.0020102     17129.76
        8637     1.000621     2.407143  0.002248119     17136.51
        8638     1.000783      2.40953  0.002325209     17138.29
        8639      1.00086     2.411911  0.002131704     17140.07
        8640     1.000991     2.414057  0.001971537     17142.71
        8641     1.001256     2.415669  0.001911396     17144.24
        8642     1.001574     2.417416  0.001667038     17145.94
        8643       1.0022     2.419556  0.001660299     17148.36
        8644     1.003118     2.420725  0.001728104     17152.09
        8645     1.003524     2.422311  0.001530608     17154.24
        8646     1.003382     2.424328  0.001424047     17159.53
        8647      1.00329     2.425679  0.001109876     17164.31
        8648     1.003604     2.426422 0.0007912114     17168.61
        8649     1.004277      2.42675  0.000636155     17173.66
        8650     1.004677     2.427493  0.000721203     17179.13
        8651     1.004886     2.428223  0.000764794     17184.15
        8652     1.005516     2.429306 0.0008533995     17188.61
        8653     1.006372     2.429809 0.0008995334     17191.94
        8654      1.00715     2.430907  0.000786342     17194.33
        8655     1.007408     2.431821 0.0008588045     17198.48
        8656     1.007873     2.432452 0.0009311865     17203.75
        8657     1.008968     2.433245 0.0009972836     17207.15
        8658     1.009996     2.434632   0.00117259      17210.2
        8659     1.010756     2.435811  0.001331739     17213.41
        8660      1.01154     2.437142  0.001332732     17215.05
        8661      1.01246     2.438572    0.0014986     17218.68
        8662     1.012721     2.439963  0.001553095     17221.33
        8663     1.013131     2.441805  0.001608349     17225.48
        8664     1.014044     2.443355  0.001495295     17229.78
        8665     1.014848     2.445005  0.001405635     17230.98
        8666     1.015071     2.445944  0.001218684      17232.1
        8667     1.014859     2.447427 0.0009146185     17236.66
        8668     1.014607     2.448229 0.0006841033     17240.49
        8669     1.014983     2.448663 0.0001130929     17244.03
        8670     1.015619      2.44868 -0.0002436562     17248.17
        8671     1.014867      2.44788 -0.0008084507     17252.48
        8672     1.012989     2.447255 -0.001335228     17254.52
        8673     1.011684      2.44543 -0.001861108     17258.11
        8674      1.01103     2.443339 -0.002521247     17261.73
        8675     1.010575     2.440435 -0.002815923      17264.2
        8676     1.009674      2.43717 -0.003156563     17266.29
        8677     1.008137     2.434166  -0.00340246     17270.05
        8678     1.006156     2.430713 -0.003592219     17274.64
        8679     1.004439     2.426826  -0.00391378      17280.7
        8680     1.002943     2.422801 -0.004177029     17283.14
        8681     1.001253     2.418511 -0.004374876     17286.66
        8682     0.999532     2.414005 -0.004563538     17291.42
        8683    0.9983347     2.409326 -0.004632266     17294.37
        8684    0.9971983     2.404547  -0.00468514     17297.01
        8685     0.995616     2.399982 -0.004540739     17297.38
        8686    0.9940503     2.395264  -0.00440215     17299.78
        8687    0.9924554     2.391163 -0.004288982     17302.46
        8688    0.9914512     2.386938 -0.003938358     17304.24
        8689    0.9908123     2.382826 -0.003701673     17308.36
        8690    0.9901759     2.379511  -0.00331652     17312.16
        8691     0.990083     2.376356 -0.002805756     17316.12
        8692    0.9899752     2.373672 -0.002345744     17318.81
        8693    0.9893019     2.371603 -0.001959475     17322.15
        8694    0.9887616     2.370128 -0.001599311     17326.18
        8695    0.9886907     2.368518 -0.001185984     17330.64
        8696    0.9883491     2.367275 -0.0009375119     17334.84
        8697    0.9882446     2.366859 -0.0006231719     17333.99
        8698    0.9884597     2.366378 -0.0003898225     17321.73
        8699    0.9881792     2.366026 -0.0003812915     17309.38
        8700     0.988022     2.365715 -0.0004712146     17314.15
        8701    0.9883874     2.365334 -0.0006445096     17326.31
        8702    0.9888706     2.364493 -0.0008464446     17340.12
        8703    0.9893057     2.363448 -0.001186702     17348.88
        8704    0.9894511      2.36233 -0.001463513     17353.81
        8705    0.9894178     2.360587 -0.001747455     17354.01
        8706    0.9895314     2.358639 -0.002199481     17345.78
        8707    0.9894761     2.356458 -0.002613995     17336.83
        8708    0.9896581     2.353532 -0.002929609      17341.1
        8709     0.989991     2.350131 -0.003394502     17350.76
        8710    0.9900752      2.34692 -0.003667364     17362.83
        8711    0.9898653      2.34288 -0.003816445     17371.99
        8712    0.9894378     2.338862 -0.003897179     17377.85
        8713    0.9892562     2.334865 -0.003698783     17382.72
        8714    0.9894213     2.331332  -0.00350716     17386.63
        8715    0.9891059     2.328085 -0.003093869     17390.85
        8716    0.9885345     2.324834 -0.002723415     17395.87
        8717    0.9881191      2.32249 -0.002344902     17399.23
        8718    0.9880769     2.320438 -0.001804563     17402.98
        8719    0.9878957     2.318705 -0.001471537        17408
        8720    0.9879296     2.317615  -0.00105932     17412.59
        8721    0.9879911     2.316603 -0.0006908009      17415.5
        8722     0.988234     2.316201 -0.0005209705     17416.79
        8723    0.9882137     2.315942 -0.0004760905     17419.33
        8724    0.9881706     2.315532 -0.0005104565     17422.45
        8725    0.9885542     2.314699 -0.0005767635     17426.67
        8726    0.9887816     2.314159 -0.0006256494     17430.04
        8727    0.9889615     2.313635 -0.000454028     17434.86
        8728    0.9893731     2.313029   -0.0003955     17438.19
        8729     0.989828     2.312883 -0.0003977655     17441.01
        8730    0.9903073     2.312577 -0.000299379     17443.19
        8731    0.9911543     2.312044 -0.000289716     17445.27
        8732     0.992325     2.311831 -0.0002401024     17448.99
        8733     0.993589     2.311724 -2.085299e-05     17454.77
        8734    0.9944682     2.311617 7.409963e-07      17460.1
        8735     0.995378      2.31196 1.069253e-05     17463.79
        8736     0.996053     2.311834 9.334702e-05     17465.57
        8737    0.9965878     2.311767  0.000148423     17468.42
        8738    0.9972349      2.31199 0.0002119635     17473.85
        8739    0.9977512     2.312554 0.0002712575     17478.47
        8740    0.9981992     2.312682   0.00026741     17481.13
        8741    0.9990025     2.312852 0.0003150485     17482.83
        8742    0.9998519      2.31306   0.00033154     17483.89
        8743     1.000569     2.313814  0.000396166     17486.83
        8744     1.001207     2.314008 0.0004600735     17489.08
        8745     1.001639     2.314437  0.000428162      17493.8
        8746     1.002194       2.3149  0.000488787     17496.68
        8747     1.002651     2.315527 0.0004912555     17498.13
        8748     1.003117     2.315964  0.000523123      17498.3
        8749     1.004144     2.316402  0.000462755     17500.68
        8750     1.004969     2.316992 0.0004895565     17504.35
        8751     1.005466     2.317378 0.0005099425        17508
        8752     1.005864     2.317922 0.0004510325      17510.5
        8753     1.006043     2.318441 0.0003699275     17513.94
        8754     1.006577     2.318797  0.000355976     17519.14
        8755      1.00719     2.318858 0.0003415525     17522.35
        8756     1.007899     2.319346 0.0003428321     17525.35
        8757     1.008525     2.319808 0.0005029415     17528.03
        8758     1.009002     2.320168 0.0004221949     17529.87
        8759     1.009122     2.320869  0.000222406     17532.29
        8760     1.008931     2.321034 0.0001693195     17536.47
        8761     1.008683     2.320697  0.000150493     17541.78
        8762      1.00801     2.320845 0.0001564251     17546.65
        8763     1.007465     2.321471 0.0003037735     17550.61
        8764     1.007145      2.32166 0.0002143909     17552.91
        8765     1.006607     2.321912 5.420755e-05     17556.73
        8766     1.005972     2.321703 0.0001475125     17558.68
        8767     1.005425     2.321688 7.965754e-05     17561.56
        8768     1.004731      2.32225  0.000168812     17564.53
        8769     1.004535     2.322231 0.0001302999     17569.17
        8770     1.003885     2.322378 -0.000141614     17571.07
        8771      1.00268     2.322209 -0.0001575235     17574.03
        8772     1.001452     2.321684 -0.0002888625     17576.99
        8773     1.000249     2.321601 -0.0003681735     17579.73
        8774    0.9992475     2.321222 -0.0003395236      17583.1
        8775    0.9984883     2.320737 -0.0005546965     17586.33
        8776    0.9979327     2.320326 -0.0006537466     17589.06
        8777    0.9973008     2.319382 -0.0008290616     17591.13
        8778    0.9968756     2.318607 -0.001008329     17592.18
        8779    0.9965459     2.317421  -0.00112993      17593.3
        8780    0.9961567     2.316292 -0.001370017     17595.92
        8781    0.9964438     2.314862 -0.001497537     17600.99
        8782    0.9968799     2.313127 -0.001748399     17604.17
        8783    0.9970799      2.31143 -0.001822567     17607.16
        8784    0.9965121     2.309299 -0.001934181     17608.94
        8785    0.9955823     2.307572 -0.002234949      17610.7
        8786    0.9949209     2.305391 -0.002287427     17613.26
        8787    0.9944259     2.302491 -0.002504048     17616.04
        8788    0.9943083     2.300149 -0.002579647     17617.28
        8789    0.9947613     2.297556 -0.002588451     17618.96
        8790    0.9953459     2.295072 -0.002609625     17622.53
        8791    0.9957634     2.292137 -0.002665609     17626.25
        8792    0.9960355     2.289711 -0.002593034     17630.31
        8793    0.9963836     2.286893 -0.002358759     17634.32
        8794    0.9965336       2.2847 -0.002370547      17636.9
        8795    0.9966279     2.282702 -0.002095041     17639.02
        8796    0.9968002     2.280228 -0.002000675     17641.33
        8797    0.9967583     2.278513 -0.001966464      17643.4
        8798    0.9969941     2.276697 -0.001807171     17645.46
        8799    0.9969653     2.274836  -0.00172752      17647.3
        8800    0.9963585        2.273 -0.001624663     17648.31
        8801    0.9960239     2.271603  -0.00135012     17651.23
        8802    0.9959214     2.270199 -0.001166758     17654.85
        8803    0.9958615     2.269435 -0.0009980044     17656.95
        8804    0.9959332     2.268333 -0.0008348365     17661.14
        8805    0.9958098     2.267611 -0.0008256324      17664.7
        8806    0.9953902     2.266859 -0.000676178     17667.29
        8807    0.9949878     2.266133 -0.000652305      17670.2
        8808    0.9947061     2.265628 -0.0006565534     17673.24
        8809    0.9947097     2.265002 -0.000541843     17675.68
        8810    0.9951311     2.264233 -0.0005483345     17678.94
        8811    0.9949498     2.263966 -0.000486666     17682.06
        8812    0.9944486     2.263435 -0.0004643761     17684.41
        8813     0.994042     2.263055   -0.0006648     17685.39
        8814     0.993953     2.262376  -0.00070193      17688.4
        8815    0.9939667     2.261306 -0.000743388     17692.45
        8816    0.9941692     2.260627 -0.0007864195     17696.58
        8817    0.9946668     2.260082 -0.0007446385     17700.32
        8818    0.9951043      2.25923 -0.0008003275     17702.14
        8819    0.9954798     2.258328 -0.0009000645     17704.39
        8820     0.995551     2.257426 -0.0009885071     17705.94
        8821    0.9952268     2.256481 -0.001145409     17706.35
        8822    0.9953216     2.255276 -0.001178643     17707.87
        8823    0.9958835     2.253746 -0.001319288     17707.01
        8824    0.9961771     2.252711 -0.001410947     17705.34
        8825    0.9957678     2.251204  -0.00149258     17704.51
        8826    0.9947472     2.249632 -0.001711709     17702.98
        8827    0.9939484     2.247776 -0.001722829     17698.43
        8828    0.9937807     2.245864 -0.001775302      17690.4
        8829    0.9939412     2.244313 -0.001928116      17672.1
        8830    0.9946695     2.242531 -0.001798975     17627.29
        8831    0.9967942     2.240063 -0.001528065      17490.5
        8832    0.9977696     2.238668 -0.001818042     17231.57
        8833     0.993835     2.238201 -0.001323741     17208.29
        8834    0.9962087     2.235259 -0.001154169     17340.85
        8835    0.9962442     2.234768 -0.001532126     17244.23
        8836    0.9932807     2.234052 -0.001159495     17459.68
        8837    0.9951598     2.232072 -0.001333285     17700.05
        8838    0.9959454     2.230621 -0.001479575     17757.68
        8839    0.9961894     2.229435 -0.001299459     17771.79
        8840    0.9965522     2.228133 -0.001164588     17778.72
        8841    0.9970033     2.226874 -0.001211463     17781.99
        8842    0.9972875     2.225962 -0.001140927     17783.57
        8843    0.9975699     2.224589 -0.001021672      17786.1
        8844    0.9976856      2.22357 -0.001040369     17790.03
        8845    0.9976564     2.222788 -0.0009710865     17792.16
        8846    0.9978761     2.221801 -0.001037537     17794.31
        8847    0.9981214     2.220705 -0.001116439     17796.61
        8848    0.9985573     2.219419 -0.001193999     17801.04
        8849    0.9987585     2.218322 -0.001115876     17804.27
        8850    0.9992502     2.217025 -0.001074946     17808.82
        8851    0.9995817     2.216242 -0.001043034     17811.37
        8852    0.9999113      2.21512 -0.0009725385     17812.45
        8853     1.000413      2.21415 -0.0009630185     17813.87
        8854     1.000763     2.213135 -0.0008731865     17816.42
        8855     1.000825     2.212389 -0.0008579425     17819.48
        8856      1.00086     2.211627 -0.000759382     17821.53
        8857     1.000668     2.210718 -0.0006719755     17823.44
        8858     1.000847     2.210097 -0.0006707919     17825.77
        8859     1.000799     2.209702 -0.000522741     17828.69
        8860     1.000894     2.208944 -0.0004600415     17832.67
        8861     1.000787     2.208627 -0.0005080579     17838.66
        8862      1.00069     2.208257 -0.0003242535      17844.2
        8863     1.000826     2.207669 -0.0002223925     17847.66
        8864     1.000894     2.207647 -0.0001902539     17850.35
        8865     1.000134     2.207738 -5.61695e-05     17852.01
        8866    0.9993262     2.207496 -8.541707e-05      17853.7
        8867    0.9986353     2.207445 -0.0002034835     17856.03
        8868    0.9981682     2.207305 -0.0001155915     17857.44
        8869     0.998001     2.206924 -0.0001246934     17859.47
        8870    0.9981993     2.207034 2.547652e-05     17863.32
        8871    0.9981545     2.206946 8.514202e-05     17866.87
        8872    0.9979113     2.207407  0.000130351     17869.13
        8873    0.9979481     2.207264 0.0001294019     17873.67
        8874    0.9980265     2.207555 2.345105e-05     17877.35
        8875     0.998222     2.207464  0.000108269     17880.02
        8876     0.998026     2.207501 6.133207e-05      17882.9
        8877    0.9976297     2.207697   0.00023322     17884.33
        8878     0.997566       2.2078  0.000277413     17886.31
        8879    0.9973838     2.208396 0.0003027785     17888.31
        8880    0.9972845      2.20861 0.0003394195     17891.89
        8881    0.9971148     2.208908  0.000252991     17895.17
        8882    0.9970519     2.209158 0.0002980355     17897.88
        8883    0.9970664     2.209408  0.000290581      17899.8
        8884    0.9969603     2.209803 0.0003064565     17901.21
        8885    0.9968232     2.210071  0.000297701     17903.83
        8886    0.9965796     2.210384 0.0002782434     17907.59
        8887    0.9964173     2.210599 0.0001501435     17911.78
        8888    0.9964647     2.210915 0.0001511624     17914.75
        8889    0.9967384     2.210671 1.612298e-05     17917.98
        8890    0.9967272     2.210989 -2.895299e-05      17920.9
        8891    0.9968722     2.210664 -5.999608e-05     17923.74
        8892     0.996907       2.2108 -0.000231198     17925.45
        8893    0.9969675     2.210431 -0.0002885936     17927.02
        8894    0.9964937     2.210064 -0.000489867     17929.62
        8895    0.9958817     2.209509  -0.00050106      17933.2
        8896     0.995667      2.20884 -0.0006280186     17936.59
        8897    0.9954728     2.208427 -0.0007638305     17939.08
        8898    0.9950571     2.207552 -0.0008937361     17941.56
        8899    0.9948115     2.206454 -0.001082818     17944.51
        8900    0.9945677     2.205265 -0.001282982     17946.72
        8901    0.9946623     2.204096 -0.001367078     17949.95
        8902    0.9949458      2.20242 -0.001363492     17953.41
        8903    0.9951887     2.200986 -0.001504973     17955.52
        8904    0.9952729     2.199811 -0.001508363     17959.04
        8905     0.995465     2.198076  -0.00167935     17960.76
        8906    0.9955027     2.196386 -0.001830653     17962.47
        8907    0.9953425     2.194268 -0.001803983     17964.75
        8908    0.9951781     2.192489 -0.001784858     17967.81
        8909    0.9949805      2.19086 -0.001662259     17971.07
        8910    0.9949083     2.189247 -0.001708381     17974.17
        8911    0.9946755     2.187619 -0.001684466     17978.19
        8912    0.9944808     2.185655 -0.001707215     17981.95
        8913    0.9942983     2.184122 -0.001701315     17983.44
        8914     0.994201     2.182418 -0.001625403     17984.69
        8915    0.9943309     2.180814 -0.001562502     17987.09
        8916    0.9946394     2.179154  -0.00144566     17990.18
        8917    0.9947639     2.177872 -0.001344099     17991.41
        8918    0.9948952     2.176635 -0.001261746     17994.05
        8919    0.9950845     2.175438 -0.001262877     17997.45
        8920    0.9951554     2.174107 -0.001212079     18000.66
        8921    0.9952273     2.172821 -0.001247769     18003.83
        8922     0.995173     2.171787 -0.001189889     18006.28
        8923    0.9953114     2.170446 -0.001118228      18008.7
        8924    0.9956295     2.169347 -0.001066954     18011.56
        8925     0.996028     2.168348 -0.001004232      18014.7
        8926    0.9961234     2.167519 -0.001002526     18018.37
        8927    0.9963561      2.16643 -0.001018329      18021.2
        8928    0.9964646     2.165337 -0.000975682     18021.62
        8929     0.996996     2.164274 -0.0009602185     18023.14
        8930     0.997469     2.163617 -0.0009250805     18026.89
        8931    0.9977139     2.162589 -0.0009036635     18029.24
        8932    0.9983184     2.161637 -0.0008731225     18032.83
        8933    0.9988825      2.16066 -0.0008282185     18035.13
        8934    0.9992042     2.160124 -0.0008030665      18038.5
        8935    0.9992219     2.159276 -0.0008034145     18040.48
        8936    0.9994618     2.158424 -0.0008130895     18036.92
        8937     1.000199     2.157446 -0.0007762815      18012.8
        8938     1.000424     2.156872 -0.0006829625     17961.13
        8939    0.9997254     2.156171 -0.0006202625     17942.09
        8940     0.999072     2.155692  -0.00072576     17964.32
        8941    0.9987589     2.154965 -0.0007199555     18017.13
        8942    0.9991482     2.153969 -0.0007624305     18042.21
        8943    0.9992561     2.153291 -0.000836934     18050.19
        8944    0.9992826     2.152643 -0.000855064     18055.12
        8945    0.9997252     2.151617 -0.0009034205     18061.55
        8946    0.9999995     2.150548  -0.00095775     18066.78
        8947     1.000154     2.149677 -0.0008743575     18070.07
        8948     1.000248     2.148812 -0.0008129245     18072.51
        8949     1.000459      2.14812 -0.0008602615      18075.3
        8950     1.000251     2.147297 -0.000825281      18076.8
        8951     1.000351     2.146236 -0.0008163125     18078.74
        8952     1.000762     2.145511 -0.0008605215     18081.44
        8953     1.001213     2.144855 -0.0008572465     18083.84
        8954     1.001565     2.143855 -0.000896594     18087.04
        8955     1.001437     2.142807 -0.000929781     18090.28
        8956     1.001341     2.141924 -0.000913968      18092.2
        8957     1.001167     2.141135  -0.00087499     18093.09
        8958     1.001144     2.140199 -0.000898564     18095.37
        8959     1.001098     2.139307  -0.00091795     18097.26
        8960     1.001201      2.13833 -0.0009503525     18099.35
        8961     1.001504     2.137464 -0.0008931695     18102.06
        8962     1.001623     2.136397 -0.0009024475     18105.01
        8963     1.001487     2.135734  -0.00093972     18107.49
        8964     1.001437      2.13472 -0.000928791     18110.41
        8965     1.001252     2.133705 -0.0009772505     18113.72
        8966      1.00107     2.132682 -0.000963814     18117.52
        8967     1.000989     2.131825 -0.0009884785     18119.58
        8968     1.001107     2.130865 -0.0009412495     18120.98
        8969     1.001505     2.129751 -0.000999324     18123.21
        8970      1.00171     2.128917 -0.0009784335     18124.28
        8971     1.001725     2.127828 -0.0009255371     18127.97
        8972     1.001831     2.126951 -0.001047567     18133.47
        8973     1.001794     2.126049 -0.0009691995     18136.06
        8974     1.001963     2.124727 -0.000931228     18138.59
        8975     1.001924     2.123951 -0.0009261149     18140.35
        8976     1.001973     2.123226 -0.0007021435     18142.19
        8977     1.002237     2.122344 -0.0007361875     18144.53
        8978     1.002024     2.121918 -0.0007722429     18145.24
        8979     1.001991     2.121007 -0.0006839561     18146.09
        8980      1.00198     2.120137 -0.000843519      18148.2
        8981      1.00192     2.119608 -0.0007493145     18150.82
        8982     1.002001     2.118544 -0.0007443125     18151.81
        8983     1.001678     2.118009 -0.0007814909     18152.35
        8984     1.001287      2.11716 -0.000631773     18154.21
        8985     1.001062     2.116482 -0.0006111525     18156.41
        8986     1.000944     2.116017 -0.000568671     18158.95
        8987     1.000778     2.115565 -0.0006091055     18161.39
        8988     1.000781     2.114885 -0.000680974     18163.55
        8989     1.000767     2.114046 -0.0007024055     18164.73
        8990     1.001062     2.113293 -0.0006169955     18166.81
        8991     1.001245     2.112755 -0.000526912     18167.75
        8992     1.001314     2.112417 -0.0004801555     18169.17
        8993     1.001071     2.111938 -0.000494189     18170.54
        8994     1.000976     2.111373 -0.0005786955     18172.36
        8995      1.00116     2.110778 -0.000602101     18175.12
        8996     1.001512     2.110103 -0.000537137     18178.44
        8997     1.001514      2.10953  -0.00051517     18181.01
        8998     1.001208     2.109224 -0.0004990355     18182.79
        8999     1.000854     2.108718 -0.000468677     18184.63
        9000     1.000583     2.108106 -0.000562457     18186.69
        9001      1.00043     2.107655 -0.0005894555     18188.85
        9002     1.000438     2.106974 -0.000601453     18191.94
        9003     1.000359      2.10636  -0.00062876      18194.6
        9004     1.000508     2.105701 -0.0005606035     18198.32
        9005     1.000592      2.10514 -0.000518429     18201.24
        9006     1.000465     2.104732 -0.000456999     18203.38
        9007     1.000483     2.104286 -0.000392554     18205.87
        9008     1.000598     2.103873 -0.000425133     18208.61
        9009     1.000691      2.10357 -0.0004086915     18210.93
        9010     1.000461     2.103031 -0.000409021     18212.21
        9011     1.000284     2.102651 -0.000389165     18213.59
        9012     1.000074     2.102237 -0.000436023     18215.32
        9013     1.000047     2.102013 -0.000434398     18217.45
        9014     1.000195     2.101287 -0.0004159235     18219.43
        9015     1.000595     2.100914 -0.0004742095     18221.84
        9016     1.001133     2.100573  -0.00042004     18224.13
        9017     1.001215     2.100117 -0.0004230115     18227.12
        9018     1.000516     2.099607 -0.000481531      18229.2
        9019    0.9995276     2.099222 -0.000461671     18232.18
        9020    0.9987629     2.098647 -0.000489249     18236.02
        9021    0.9982141      2.09827 -0.0005538815     18238.84
        9022    0.9979483      2.09765 -0.000529225     18240.79
        9023    0.9978274     2.097006 -0.0006416315     18243.42
        9024    0.9978847      2.09653 -0.0006725495     18246.08
        9025    0.9980159     2.095703 -0.0005863955     18248.03
        9026    0.9980633      2.09496 -0.000643963     18249.32
        9027    0.9980287     2.094661 -0.0005989005     18252.03
        9028    0.9979922     2.093954 -0.0006126116     18255.85
        9029    0.9982336     2.093308 -0.000716029     18258.99
        9030    0.9984204     2.092509 -0.0007063755     18261.41
        9031    0.9986872     2.091797 -0.000747303     18263.58
        9032    0.9988538     2.091129 -0.0007261655     18264.96
        9033     0.998993     2.090318 -0.000717897     18266.16
        9034    0.9990658     2.089605 -0.0007352845     18268.25
        9035    0.9988959     2.088925 -0.0007626185     18271.13
        9036    0.9986395     2.088187 -0.000775802     18273.96
        9037    0.9986002     2.087268 -0.000794746     18277.38
        9038     0.998545     2.086502 -0.000789023     18278.54
        9039    0.9987355     2.085746 -0.000765279     18279.01
        9040    0.9989596     2.085031 -0.000750194     18279.63
        9041    0.9992628     2.084207 -0.0007803525     18281.67
        9042    0.9994513     2.083501 -0.000814251     18283.91
        9043    0.9994389     2.082625 -0.000770296     18286.05
        9044    0.9991549     2.081774 -0.0008088145     18288.46
        9045    0.9988143     2.081126 -0.000806163        18292
        9046    0.9984298     2.080265 -0.000834584     18294.89
        9047    0.9981224       2.0794 -0.000917982     18296.74
        9048    0.9982686     2.078436 -0.0009211515     18300.17
        9049     0.998294     2.077454 -0.0008632315     18301.29
        9050    0.9984202     2.076581 -0.000858428     18301.12
        9051    0.9986582     2.075947 -0.0008388165     18302.83
        9052    0.9987238     2.075002 -0.000876335     18305.86
        9053    0.9991253     2.074099 -0.000904679     18310.32
        9054    0.9994364     2.073076 -0.0008850215     18312.84
        9055    0.9995243     2.072328 -0.0008889245     18314.79
        9056    0.9994558     2.071462 -0.0007954865     18316.51
        9057    0.9992677     2.070543 -0.000847705     18316.35
        9058    0.9990134     2.069894 -0.000929555     18316.77
        9059    0.9991432     2.068937 -0.0009534725     18318.81
        9060    0.9996012     2.067744 -0.0009733695     18320.87
        9061    0.9999312     2.066729 -0.000887656     18321.67
        9062     1.000132        2.066 -0.0008010305     18322.39
        9063     1.000058     2.065387  -0.00082041     18324.06
        9064     1.000206      2.06454 -0.0008254611     18325.58
        9065      1.00025     2.063447  -0.00093125     18326.59
        9066     1.000181     2.062698 -0.000855746     18329.04
        9067     0.999995     2.061662 -0.000797057     18331.46
        9068    0.9996393     2.061117 -0.000768219     18333.98
        9069     0.999469     2.060259 -0.000687811     18336.29
        9070    0.9996134     2.059625 -0.000783718     18339.77
        9071    0.9996039     2.058911 -0.0008016735     18341.63
        9072    0.9994914     2.057982 -0.0008143605     18343.93
        9073    0.9997313     2.057052   -0.0008358     18347.28
        9074     1.000006     2.056368 -0.0007468875     18349.09
        9075     1.000329     2.055567 -0.0007185511     18350.65
        9076     1.000713     2.054994 -0.0008074565     18352.48
        9077     1.001179     2.054178 -0.0007420731     18354.79
        9078     1.001382     2.053138 -0.0008655275     18356.86
        9079     1.001376     2.052599 -0.0008532695     18358.28
        9080     1.001431     2.051532 -0.0008240911     18360.09
        9081     1.001373     2.050765   -0.0009189     18360.99
        9082     1.001311     2.049842 -0.0008577715     18360.26
        9083     1.001179     2.048923 -0.0008924395      18359.2
        9084     1.001334     2.048101 -0.000820129     18355.73
        9085     1.001782     2.047195 -0.000829521     18342.79
        9086     1.001702     2.046561 -0.0007502455     18317.86
        9087     1.001515     2.045605 -0.000736014     18298.53
        9088      1.00147       2.0451 -0.0007989495     18291.34
        9089     1.001589     2.044251 -0.0007828985     18283.53
        9090     1.001842     2.043365 -0.0008725575     18258.44
        9091     1.001997     2.042474 -0.0008837644     18208.42
        9092     1.002361      2.04161 -0.0006300045     18163.64
        9093     1.003252     2.040716 -0.0006544005     18076.52
        9094     1.001109     2.040845 -0.0007277455     18057.01
        9095     1.001102     2.039856 -0.0006662891     18210.81
        9096     1.002888     2.038699 -0.0008097375     18236.78
        9097     1.003443     2.038051 -0.0007099765     18116.46
        9098     1.001941     2.037606 -0.000734168     18099.97
        9099      1.00189     2.037016 -0.0007568325     18205.24
        9100     1.002916     2.035762 -0.000797862     18285.62
        9101     1.003329     2.035024 -0.0008385685     18306.03
        9102     1.003453     2.034415 -0.000752019     18326.89
        9103     1.003395     2.033662 -0.0007683465      18347.3
        9104     1.003074     2.032754 -0.000840378     18357.99
        9105     1.002705      2.03195 -0.0008288624      18365.6
        9106       1.0024     2.031054 -0.0007343041     18377.07
        9107     1.001776     2.030347 -0.0008491295     18393.53
        9108     1.001372     2.029817 -0.000774361     18410.69
        9109     1.001184     2.028554 -0.0007521501     18420.27
        9110     1.001193     2.027956 -0.000850378     18426.14
        9111     1.001032     2.027338 -0.000759746     18430.33
        9112     1.000772     2.026416 -0.0007940395     18432.92
        9113     1.000802     2.025515 -0.0007894125     18435.64
        9114     1.000816      2.02478 -0.0007909655     18438.89
        9115     1.000717      2.02418 -0.0007985455     18442.68
        9116     1.000649     2.023252 -0.000796006     18447.02
        9117     1.000482     2.022321 -0.0007784845     18450.44
        9118     1.000354     2.021596 -0.0007270565      18452.4
        9119      1.00044     2.021066 -0.0007293855     18455.03
        9120      1.00056     2.020343 -0.000788178     18455.67
        9121     1.000807     2.019403 -0.000853207     18456.72
        9122     1.001132     2.018443 -0.0008062144     18457.99
        9123      1.00109     2.017654 -0.000683131     18458.53
        9124     1.000988     2.017119 -0.0006498595     18460.27
        9125     1.000811     2.016671 -0.0006314095     18463.86
        9126     1.000681     2.015844  -0.00066012     18466.13
        9127     1.000601     2.015128 -0.000731899     18468.84
        9128     1.000392     2.014478 -0.0007205795     18471.53
        9129     1.000236     2.013743 -0.0006930065     18473.79
        9130     1.000275     2.012961 -0.000680353     18475.48
        9131     1.000422     2.012356 -0.0006613915     18477.19
        9132     1.000732     2.011757 -0.0006116695      18478.3
        9133     1.000992     2.011097 -0.0005867975     18480.23
        9134     1.001172     2.010515 -0.0006044545     18482.74
        9135     1.001272     2.010009  -0.00056186     18485.71
        9136      1.00122     2.009339 -0.0005584295     18486.61
        9137     1.001221      2.00885  -0.00057904     18486.63
        9138     1.001566     2.008281 -0.0005552705     18487.19
        9139     1.002275     2.007693 -0.0005613075     18487.89
        9140     1.003002     2.007118 -0.000583354     18488.64
        9141     1.003037     2.006605 -0.000519236     18491.24
        9142     1.002896     2.005948 -0.0005198075     18494.02
        9143     1.002716     2.005616 -0.0004629885     18497.24
        9144      1.00241     2.005039 -0.000519791     18500.53
        9145     1.002221     2.004753 -0.000549557     18503.47
        9146     1.002202     2.003868 -0.0005108875      18504.4
        9147     1.002208     2.003417  -0.00054826     18505.86
        9148     1.002266     2.002995 -0.000504449     18507.56
        9149     1.002381      2.00256 -0.0004974735      18508.2
        9150     1.002378     2.001851 -0.0005334255        18509
        9151     1.002058     2.001427 -0.0005323025     18510.23
        9152     1.001609     2.000861  -0.00048056     18510.36
        9153     1.001254     2.000431 -0.000472408     18511.83
        9154     1.001025     1.999928 -0.0005096985     18514.81
        9155     1.001078     1.999538 -0.000557993     18516.56
        9156     1.001047     1.998823 -0.0005977085     18517.64
        9157     1.000935     1.998199 -0.0006247775      18519.2
        9158     1.000943     1.997538 -0.0006836655     18521.27
        9159     1.001064     1.997039 -0.000593129     18523.54
        9160     1.001504     1.996088 -0.0006000825     18525.68
        9161     1.001753     1.995826 -0.0006405444     18528.49
        9162     1.002094     1.995137 -0.0005311575     18531.07
        9163     1.002233     1.994477 -0.0005651515     18533.05
        9164     1.002226     1.993963 -0.000563515     18536.52
        9165     1.001882     1.993565 -0.000624774     18538.13
        9166     1.001654     1.992883 -0.000648435     18540.25
        9167     1.001693     1.991977 -0.000714064      18542.1
        9168     1.001612     1.991369 -0.0007153005     18545.01
        9169     1.001743     1.990709 -0.000662227     18548.09
        9170     1.001948     1.990022 -0.000727743     18550.82
        9171     1.002277     1.989329 -0.000697133     18552.68
        9172     1.002435     1.988459 -0.0006581185     18553.55
        9173     1.002238     1.987921 -0.000668443     18554.05
        9174     1.001992      1.98739 -0.0006744745     18553.66
        9175     1.001882     1.986655 -0.0007028755      18554.7
        9176     1.001764     1.985761 -0.000758357     18555.33
        9177      1.00199     1.985109 -0.0007388385     18556.58
        9178     1.001995     1.984356 -0.000656232     18556.59
        9179     1.001867     1.983699 -0.000680405     18556.96
        9180     1.001945     1.983136 -0.0006876595     18557.84
        9181     1.001991     1.982388 -0.0006630425     18559.38
        9182     1.001719     1.981605 -0.0007398355     18560.24
        9183     1.001153     1.981047 -0.0007138955     18560.39
        9184     1.000924     1.980176 -0.000640909     18561.82
        9185     1.000909     1.979532 -0.000663828     18563.39
        9186     1.000895     1.979042 -0.0006381225     18564.43
        9187     1.000932     1.978392 -0.000625053     18567.09
        9188     1.000798     1.977624 -0.000588821     18568.54
        9189      1.00046     1.977032 -0.0006046695      18568.5
        9190     1.000248     1.976687 -0.000562857     18569.71
        9191     1.000348     1.975973 -0.0005955945     18571.27
        9192     1.000329     1.975372 -0.000583219     18573.01
        9193     1.000202     1.974649 -0.0005788295     18575.61
        9194     1.000235     1.974354 -0.000587365     18577.88
        9195     1.000305     1.973658 -0.0005728801     18578.69
        9196     1.000384     1.973023 -0.000693263     18579.01
        9197     1.000501     1.972358 -0.0006447335     18579.54
        9198      1.00056     1.971581 -0.000661449     18579.85
        9199     1.000695     1.971079 -0.0007355615     18580.66
        9200     1.000883     1.970377 -0.000680522     18584.03
        9201     1.000938     1.969416 -0.0006749095     18586.49
        9202     1.000923     1.968859 -0.0006292065     18587.06
        9203     1.000935     1.968379 -0.0006293185     18588.44
        9204     1.001154      1.96786 -0.0005414945     18589.86
        9205     1.001366     1.966898 -0.0005869086     18590.41
        9206     1.001525     1.966693 -0.0006882655     18591.63
        9207     1.001788     1.966032 -0.000649047     18592.17
        9208     1.002262     1.965107 -0.0007140305      18593.5
        9209     1.002621     1.964302 -0.000751034     18596.39
        9210      1.00263     1.963836 -0.000724075     18599.06
        9211     1.002735     1.963028 -0.0006896245      18601.1
        9212     1.002911     1.962211 -0.000735221     18603.61
        9213     1.003129     1.961544 -0.000727154     18604.96
        9214     1.003453     1.960896 -0.0006747125     18606.03
        9215     1.003766     1.960119 -0.0007009795     18607.58
        9216     1.003895     1.959512 -0.000740639     18609.35
        9217      1.00411      1.95874 -0.000784095     18611.32
        9218     1.004247     1.957933 -0.000770477     18612.44
        9219     1.004094     1.956983 -0.000698952     18612.67
        9220     1.003763      1.95643 -0.000654751     18613.36
        9221     1.003666     1.955944 -0.000671803     18614.21
        9222     1.003553     1.955314 -0.0006840526        18616
        9223      1.00326     1.954295 -0.0008108595     18618.33
        9224     1.002779     1.953694 -0.0008030545     18619.82
        9225     1.002291       1.9527 -0.0007728001     18620.44
        9226     1.002102     1.952102 -0.0008484234      18622.7
        9227     1.002121     1.951204 -0.0006953005     18625.64
        9228     1.002096       1.9503 -0.0007398725     18627.62
        9229       1.0018     1.949919 -0.0006731565     18629.27
        9230     1.001657     1.949142 -0.0006502925     18630.14
        9231      1.00145     1.948512 -0.000713755      18630.3
        9232     1.001295     1.947699 -0.000751453     18631.22
        9233     1.001442     1.947064 -0.0007563275     18631.46
        9234     1.001801     1.946136 -0.0007553885     18629.93
        9235     1.002028     1.945486  -0.00074332     18631.13
        9236     1.001894     1.944678 -0.000672068     18632.55
        9237     1.001609     1.944091 -0.0007340365     18634.67
        9238     1.001198     1.943448 -0.000654375     18635.45
        9239     1.000957      1.94255 -0.0006677545     18636.08
        9240     1.000903      1.94206 -0.0006497355     18638.09
        9241     1.000913      1.94142 -0.0006199035      18639.8
        9242     1.000646     1.940849 -0.0006554155     18640.49
        9243     1.000532     1.940071 -0.0007605045     18640.66
        9244     1.000598     1.939438 -0.0008073495     18640.31
        9245     1.000794     1.938378 -0.000732196     18638.28
        9246     1.001198      1.93762 -0.000726683     18637.04
        9247     1.001422     1.937142 -0.000646454     18634.12
        9248     1.001306     1.936532 -0.000729868     18624.49
        9249     1.001488     1.935792 -0.000646441     18585.21
        9250     1.001974       1.9347 -0.000653101     18474.68
        9251       1.0005     1.934556 -0.0006894805     18403.14
        9252    0.9998805     1.933919 -0.0006453661     18513.39
        9253     1.000815     1.933034 -0.0007416625      18580.9
        9254     1.001822     1.932119 -0.000677039     18514.31
        9255     1.001325     1.931589 -0.000668593      18424.3
        9256     1.000863     1.931211 -0.0006175075     18511.24
        9257     1.000954      1.93036 -0.0006652925     18612.62
        9258     1.001046     1.929649 -0.0006920355     18659.77
        9259     1.000927     1.928928 -0.0007259365     18670.68
        9260     1.000902     1.928443 -0.0006702055     18674.95
        9261     1.000794     1.927456 -0.000627847     18676.54
        9262     1.000793     1.926968 -0.0006822305     18678.98
        9263     1.000776     1.926417 -0.0006155155     18680.96
        9264     1.000625     1.925714 -0.0006850055     18682.31
        9265      1.00025     1.924994 -0.000703973     18682.29
        9266     1.000078     1.924228 -0.0007074715      18682.4
        9267    0.9997667     1.923601 -0.000668192     18681.94
        9268    0.9994031     1.922884 -0.0006519745      18682.5
        9269    0.9991865     1.922321 -0.000636345     18684.72
        9270    0.9991508      1.92162 -0.000648613     18685.97
        9271    0.9992322     1.921055 -0.000699836     18686.69
        9272    0.9996549      1.92029 -0.0006795435     18689.32
        9273     0.999763     1.919522 -0.000664507     18691.55
        9274     1.000043     1.918902  -0.00061653     18693.32
        9275     1.000362     1.918397 -0.0006361325     18693.76
        9276     1.000306     1.917824 -0.000583571     18692.81
        9277     1.000305     1.916977 -0.0005934985     18694.43
        9278     1.000537     1.916568 -0.000642805     18696.88
        9279     1.000604     1.916023 -0.0005737905     18698.26
        9280     1.000764     1.915252 -0.000636528     18699.21
        9281     1.000934     1.914682 -0.000631996     18700.76
        9282      1.00089     1.914022 -0.000639564      18701.6
        9283     1.001106     1.913495 -0.000612428     18702.03
        9284     1.001019     1.912694 -0.0006408335     18701.88
        9285     1.000966     1.912233 -0.0006408355     18704.67
        9286     1.000794     1.911458 -0.000581483        18707
        9287     1.000403     1.910932 -0.0006041115     18707.75
        9288     1.000036     1.910368 -0.000569315     18709.11
        9289    0.9996996     1.909816 -0.0005825295     18710.65
        9290    0.9993784     1.909181 -0.0005774705     18710.89
        9291    0.9991707     1.908602 -0.0005808775     18710.58
        9292    0.9990989     1.908058 -0.0006042595     18712.22
        9293    0.9991661     1.907493 -0.0005896315     18713.33
        9294    0.9994169     1.906764 -0.000555283     18714.12
        9295    0.9997235     1.906243 -0.0005683955     18715.77
        9296    0.9997014     1.905837 -0.000520139      18717.4
        9297    0.9995349     1.905219 -0.0005679435     18717.86
        9298    0.9993841     1.904683 -0.0005913395     18719.18
        9299    0.9993164     1.903972 -0.000563768     18720.83
        9300    0.9993168     1.903472  -0.00058269     18723.08
        9301    0.9992676     1.902964 -0.000556536     18723.69
        9302    0.9990649     1.902353 -0.0006352385     18724.19
        9303    0.9990745     1.901746 -0.0006564975     18725.27
        9304    0.9992769     1.900931 -0.000597223     18724.74
        9305    0.9993648     1.900338 -0.0005690795     18724.91
        9306    0.9995595     1.899964 -0.000551825     18726.16
        9307     0.999855     1.899469 -0.000518495     18727.28
        9308     1.000101     1.898724 -0.000584041     18727.98
        9309     1.000012     1.898264 -0.000582008     18728.65
        9310     1.000124     1.897628 -0.0005750375     18729.99
        9311     1.000188     1.897141 -0.000569157     18729.73
        9312     1.000591     1.896423  -0.00054536     18729.82
        9313     1.000983     1.895987 -0.000551716     18731.17
        9314     1.001182     1.895446 -0.0005189935     18732.41
        9315     1.001138     1.894934 -0.000573831     18733.49
        9316     1.001038     1.894347 -0.0005731795     18734.52
        9317     1.000863     1.893692 -0.000568005     18735.96
        9318     1.000958     1.893153 -0.0005885575     18739.64
        9319     1.000943     1.892662  -0.00060209     18741.42
        9320     1.000745     1.891993 -0.0005661805     18740.22
        9321     1.000678     1.891284 -0.0006091465     18739.01
        9322     1.000443     1.890889 -0.0006000765     18737.86
        9323     1.000224     1.890226 -0.0005653965     18738.89
        9324     1.000035     1.889593  -0.00063636     18739.97
        9325     1.000119     1.889022 -0.000617496     18741.54
        9326     1.000489     1.888343 -0.0005966285     18742.96
        9327     1.001159     1.887756 -0.0006548475     18745.01
        9328     1.001449     1.887206 -0.0005790165     18746.58
        9329     1.001504     1.886403 -0.000542093     18747.62
        9330     1.001587     1.886027 -0.000581877     18749.83
        9331     1.001992     1.885587  -0.00057135     18751.14
        9332      1.00231     1.884879 -0.0005937525     18750.24
        9333     1.002578     1.884117  -0.00062906     18748.09
        9334     1.003069     1.883652 -0.0005932505     18749.08
        9335     1.003149     1.883071 -0.000522258     18751.84
        9336     1.003019     1.882506 -0.0005689425     18755.66
        9337     1.002968     1.882028 -0.0006114795     18758.05
        9338       1.0032     1.881376 -0.000589911     18759.03
        9339     1.003533     1.880625 -0.000630973     18758.76
        9340     1.003648     1.880146 -0.0006264085     18757.07
        9341     1.003789     1.879504 -0.0005701885     18757.52
        9342     1.003521     1.878871 -0.0005945945      18756.7
        9343     1.003686     1.878344 -0.000618748     18758.48
        9344      1.00368     1.877768 -0.000609121     18759.14
        9345     1.003487     1.877029 -0.0006155695     18759.67
        9346     1.003251     1.876434 -0.0005951105     18760.35
        9347     1.002798     1.875882 -0.0005637435     18762.08
        9348     1.002454     1.875387 -0.0006051915     18763.36
        9349     1.002282     1.874774  -0.00063167     18761.84
        9350     1.002191     1.874014 -0.000613701     18758.23
        9351     1.001948     1.873356 -0.0006469325     18755.22
        9352      1.00174     1.872933 -0.000630222     18756.34
        9353     1.001701     1.872187 -0.0005759436     18759.77
        9354     1.001535     1.871493 -0.000684647     18761.17
        9355     1.001368     1.871052 -0.000605387     18762.96
        9356     1.001609     1.870194 -0.0005548165     18767.08
        9357     1.001752     1.869765 -0.000649557     18771.48
        9358     1.001706     1.869273 -0.000602303     18773.05
        9359     1.001569     1.868454 -0.000614723     18772.45
        9360     1.001431     1.867785 -0.0006628955     18771.48
        9361     1.001362     1.867306 -0.000617365     18769.29
        9362     1.001545     1.866622 -0.0005502275     18766.55
        9363     1.001925     1.865984  -0.00062251      18766.8
        9364     1.002509     1.865584 -0.0005718625     18769.11
        9365     1.002565     1.864816 -0.000590426     18768.57
        9366      1.00248     1.864334 -0.000663856     18770.74
        9367       1.0022     1.863622 -0.000642076     18773.83
        9368     1.001754     1.862929 -0.0005903765     18778.24
        9369     1.001402     1.862248 -0.000617845     18781.37
        9370     1.001007     1.861973 -0.000598518     18781.68
        9371     1.000673     1.861151 -0.0005878145     18782.83
        9372     1.000334     1.860534 -0.000670032     18784.79
        9373     1.000231     1.859897 -0.0005981135     18785.17
        9374     1.000282     1.859293 -0.0005959015     18784.49
        9375     1.000293     1.858759 -0.000589203     18783.22
        9376     1.000699     1.858151 -0.0005893965     18783.53
        9377     1.000927      1.85754 -0.000562017     18783.59
        9378     1.001268     1.856935 -0.0005195575     18784.95
        9379     1.001603      1.85651 -0.0005811455     18787.65
        9380     1.001626     1.856073 -0.000647239     18788.68
        9381     1.001619     1.855215  -0.00063117     18789.07
        9382     1.001637     1.854346 -0.0006532545     18790.05
        9383     1.001517     1.853986 -0.0006287225     18789.99
        9384     1.001688      1.85346 -0.0005662465      18791.4
        9385     1.001825       1.8527 -0.000611056     18793.38
        9386     1.001462     1.852081 -0.000626282     18793.84
        9387     1.001213     1.851542 -0.000596728     18795.22
        9388     1.001217     1.850954 -0.0005904975        18796
        9389     1.001371     1.850313 -0.000581729     18795.77
        9390     1.001533     1.849719 -0.000580038     18794.96
        9391     1.001297     1.849215 -0.0005675775     18794.74
        9392      1.00092     1.848634  -0.00060166     18793.49
        9393     1.000459     1.848043 -0.000629177     18792.83
        9394     1.000261     1.847313 -0.000615909     18792.81
        9395     1.000381     1.846698 -0.0006381645     18793.93
        9396     1.000282     1.846171 -0.0006197575     18794.66
        9397     1.000048      1.84549 -0.000617539     18794.68
        9398     1.000152     1.844833 -0.000599252     18795.89
        9399     1.000215     1.844228 -0.000634082     18798.56
        9400     1.000092     1.843774 -0.0006256055     18798.27
        9401     1.000065     1.842954 -0.000594221     18797.56
        9402     0.999893     1.842331 -0.0006715295     18797.54
        9403    0.9996247     1.841851 -0.0006355965     18798.95
        9404    0.9995959     1.841088 -0.0005758415     18800.88
        9405    0.9997523     1.840412 -0.0006098615     18801.87
        9406     1.000008     1.840028 -0.0005707655     18803.77
        9407     1.000159     1.839411 -0.0005646905     18804.24
        9408     1.000421     1.838804 -0.0006367275     18802.95
        9409     1.000509     1.838153 -0.000678242     18802.64
        9410     1.000404     1.837481 -0.000676013     18804.04
        9411     1.000146     1.836698 -0.000605266     18804.74
        9412    0.9999754       1.8361 -0.000596805     18806.03
        9413    0.9996873     1.835732 -0.0005699265     18807.26
        9414    0.9995769     1.835094 -0.000563359     18808.41
        9415    0.9993516     1.834419 -0.000629901     18808.86
        9416    0.9991029     1.833847 -0.000635721      18809.4
        9417    0.9988596     1.833212 -0.000658844     18808.37
        9418    0.9990472     1.832551 -0.0006419125     18806.68
        9419    0.9993006     1.831783 -0.0006420455     18805.92
        9420    0.9993276     1.831279 -0.0006056535     18805.61
        9421     0.999444     1.830644 -0.000590401     18804.46
        9422    0.9996062     1.830128 -0.0006315475      18803.6
        9423    0.9998985     1.829422 -0.000608119     18803.41
        9424    0.9998339     1.828753 -0.000652974     18803.96
        9425    0.9996171     1.828212 -0.000610875     18804.22
        9426    0.9996341     1.827516 -0.0006009925     18803.99
        9427     0.999556     1.826978 -0.000614802     18804.62
        9428    0.9994087     1.826349 -0.0006281385     18804.65
        9429    0.9989965     1.825752 -0.000646129     18803.17
        9430    0.9986831     1.825004 -0.0005856435     18803.52
        9431    0.9982988     1.824394 -0.0005857005     18804.86
        9432    0.9980478     1.824007 -0.0005802595     18804.57
        9433    0.9982592      1.82341 -0.000591941     18805.58
        9434    0.9984809     1.822683 -0.0006461685      18805.6
        9435    0.9988554     1.822026 -0.0006415245     18805.23
        9436     0.999194     1.821422 -0.0006065755     18805.79
        9437     0.999226     1.820844 -0.000591312     18806.34
        9438    0.9991178     1.820256 -0.0005755445     18805.78
        9439     0.999082     1.819661 -0.0006134085     18805.16
        9440    0.9990898      1.81912 -0.0005780815     18805.17
        9441     0.998911      1.81839 -0.0006006435     18805.04
        9442    0.9988958     1.817944 -0.000589168     18804.77
        9443    0.9988779     1.817258 -0.0005761035     18804.19
        9444    0.9986934     1.816763 -0.0005894695     18803.88
        9445     0.998561     1.816085 -0.0005907985     18803.54
        9446    0.9983802     1.815586 -0.000622063     18803.78
        9447    0.9981485     1.814895 -0.000539135      18804.6
        9448    0.9981282     1.814275 -0.0006104905     18805.09
        9449     0.997976     1.813929 -0.0006282455     18805.37
        9450     0.997993     1.813144 -0.0005908635     18803.97
        9451    0.9978927     1.812382 -0.0006225865     18803.48
        9452    0.9977542     1.811911 -0.0006161705     18803.45
        9453    0.9979291     1.811439 -0.000569585     18802.55
        9454    0.9984132     1.810679 -0.000634131     18802.54
        9455    0.9989547     1.810104 -0.000635671     18802.66
        9456    0.9995322     1.809375 -0.0005862405     18801.95
        9457    0.9999746     1.808896 -0.0005840895     18801.08
        9458     1.000194     1.808334 -0.0005331495     18800.15
        9459     1.000222     1.807767 -0.000541465     18799.93
        9460     1.000175     1.807242 -0.0005097305     18800.49
        9461     1.000256      1.80673 -0.000513714     18801.46
        9462     1.000221     1.806296 -0.000517957     18803.23
        9463    0.9996182     1.805712 -0.0005757935     18803.81
        9464    0.9989551      1.80517 -0.0006196145     18804.77
        9465    0.9984218     1.804427 -0.000592036     18805.18
        9466    0.9979726     1.803817 -0.000578196     18806.83
        9467    0.9974679     1.803344 -0.0005307285     18807.37
        9468    0.9970744     1.802858 -0.0006066475     18807.65
        9469    0.9966834     1.802304 -0.000576761     18807.15
        9470    0.9965944     1.801391 -0.0005800945     18806.84
        9471    0.9966007     1.801037 -0.0006241094     18805.91
        9472    0.9966619     1.800537 -0.0004927845     18804.96
        9473    0.9967115     1.799808 -0.0005379775     18803.84
        9474    0.9966484     1.799419 -0.000533756     18803.03
        9475    0.9966084     1.798885 -0.0005242115     18802.06
        9476    0.9966693     1.798402 -0.0005495745     18801.02
        9477    0.9969079     1.797711 -0.000572439     18801.07
        9478    0.9970023     1.797221 -0.000595027     18800.25
        9479    0.9974086     1.796596 -0.0005310845     18800.52
        9480     0.997334     1.796022  -0.00052705      18800.2
        9481    0.9966653     1.795586 -0.000553425     18799.93
        9482    0.9961143     1.795113 -0.0005237935     18798.22
        9483    0.9960114     1.794382 -0.000574147        18795
        9484    0.9960454     1.793927 -0.0005718795     18786.23
        9485    0.9960594      1.79329 -0.000535064     18767.71
        9486    0.9960883     1.792825 -0.000530749     18758.88
        9487    0.9962645     1.792242 -0.000557348     18765.13
        9488    0.9962955     1.791804 -0.0005882305     18773.98
        9489    0.9961468      1.79106 -0.000578069      18782.3
        9490    0.9958598     1.790472 -0.0006373805     18784.49
        9491    0.9959004     1.789929 -0.0005941135     18775.86
        9492    0.9960383     1.789254 -0.0005589165     18759.64
        9493    0.9959189     1.788684 -0.0006031455     18755.98
        9494    0.9959445     1.788237 -0.0005434525     18762.96
        9495    0.9959958     1.787517 -0.0005356575     18774.59
        9496     0.995808     1.787081 -0.000578704     18783.76
        9497    0.9956558     1.786541 -0.000525992     18785.17
        9498    0.9954709     1.785922 -0.000552499     18784.37
        9499    0.9952354     1.785413 -0.000541456     18783.47
        9500    0.9952354     1.785413 -0.000541456     18783.47
