# This file has been produced by extranormal (v 1.0.1 - February 23, 2017)
# O. Roudenko - Synchrotron SOLEIL. Covered by GPL licence.
#Data from HDF File: /nfs/ruche-rock/rock-soleil/com-rock/2022/Projets/20220725_Gilles/op5_cell4_alone/op5_cell4_pos1_close/op5_cell4_pos1_close_0015/op5_cell4_pos1_close_0015_14422.nxs to op5_cell4_pos1_close_0015_14445.nxs
#Time at start=2022-07-28 12:55:00.920
#Time from start (seconds)=64.6245818584
#Sample temperature (C)=nan
# Normalization -------------
# pivot spectrum: LNO_pristine_av1100_00001.txt
# E0=8332.88   Eshift=-0.200000841304
# E0_pivot = 8349.6
# pre-edge params: from E0_pivot-240.0 to E0_pivot-50.0
# pre-edge range: [8109.6, 8299.6]
# post-edge params: from E0_pivot+70.0 to E0_pivot+1155.0
# post-edge range: [8419.6, 9500.0]
# I jump at E0_pivot = 0.797609229524
# shifted energy	normalized	reference	ref.derivative	I0
        8060  0.001941374     1.042744 -0.0004724922     14939.32
        8065 0.0008387784     1.040377 -0.0004906746     14958.97
        8070 0.0007055928     1.037836 -0.0004623414     14984.69
        8075 -0.0006202097     1.035742 -0.0004532619     15007.19
        8080 0.0005029685     1.033497 -0.0004452737     15029.23
        8085  0.001385957     1.031312 -0.0004499926     15048.97
        8090  0.001830021     1.028931 -0.0004554093      15071.2
        8095  0.001445246     1.026743 -0.000447361     15095.39
        8100 0.0008922449     1.024389 -0.0004391482     15117.24
        8105 0.0005580524     1.022365 -0.0004440307     15139.25
        8110 0.0002837462     1.020148 -0.0004256352     15159.08
        8115 -0.0004047459     1.017862 -0.0004358593        15178
        8120 8.621625e-05     1.015876 -0.000421339     15198.29
        8125 -0.0008877057     1.013648 -0.0004214093     15220.31
        8130 0.0005105988     1.011721 -0.0004195737     15241.95
        8135  0.001888697     1.009434 -0.0004116523     15262.99
        8140 0.0005912748     1.007484 -0.0004115608     15282.47
        8145 -0.000571878     1.005415 -0.0003997093     15304.73
        8150 -0.001689735      1.00349 -0.0004075717     15321.91
        8155 -0.001133623      1.00144 -0.0004114531     15343.95
        8160   0.00014708    0.9993331 -0.0004180647     15364.08
        8165  0.001415799    0.9971854 -0.0004374421     15391.78
        8170  0.002773203    0.9951284 -0.0004340925     15409.74
        8175  0.001129624    0.9926908 -0.0004268582     15432.88
        8180  0.001154868    0.9906512 -0.000427691     15452.53
        8185 -0.0001268817    0.9886483 -0.0004128122     15471.72
        8190 -0.001236706    0.9865746 -0.0004145332     15494.57
        8195 -0.0004795967    0.9844345 -0.0004131146     15517.01
        8200 -0.0006228616    0.9823605 -0.0004068574      15533.6
        8205  -0.00024975     0.980386 -0.0004123613     15557.82
        8210 -0.0008021968    0.9784374 -0.0004104267     15574.31
        8215 -0.001179194    0.9761873 -0.000414006     15595.67
        8220 -0.0008685737     0.974152 -0.000414595     15616.85
        8225 -0.0009734654    0.9721059 -0.0004013428     15639.26
        8230 -0.000812729    0.9701455 -0.0004000633     15659.76
        8235 -0.001115483    0.9681604 -0.0003919294     15676.54
        8240 -0.000514838    0.9661507 -0.0003851306     15699.91
        8245  0.001505045    0.9642673 -0.0003830769     15721.23
        8250 0.0001348043    0.9624429 -0.0003645967     15739.45
        8255 -0.0007157583    0.9604989 -0.0003663815     15757.35
        8260 -0.001240368    0.9588588 -0.0003651383     15777.59
        8265 7.793443e-05    0.9569396 -0.0003467087     15798.19
        8270  0.001967343    0.9551402 -0.0003575476     15820.62
        8275 -0.0003362272    0.9535647 -0.0003366041      15836.5
        8280 0.0001977001    0.9517079 -0.0003180951     15855.87
        8285 0.0005051269    0.9502076 -0.0003120244     15867.67
        8290 0.0003001844    0.9487783 -0.0002800456     15880.17
        8295  0.001433824    0.9473242 -0.0002660662      15890.9
        8300  0.003726803    0.9462084 -0.000189979     15819.59
      8300.2  0.003735064    0.9462678  0.000123812     15809.68
      8300.4  0.003781914     0.946309 -4.976113e-06     15800.25
      8300.6  0.003837791    0.9462551 -0.0002696629     15792.75
      8300.8  0.003834567    0.9462044 -0.000374287     15786.76
        8301  0.003830002    0.9460521 -0.0002444499     15782.59
      8301.2  0.003817086    0.9460096   -0.0002315     15779.54
      8301.4  0.003854094    0.9460596 -0.0002266378      15778.1
      8301.6  0.003792922    0.9460192 -0.0002980012     15776.68
      8301.8  0.003766178    0.9458708 -0.0005809132     15776.01
        8302  0.003758403    0.9457712 -0.0007579127     15775.76
      8302.2  0.003857885    0.9455948 -0.0008135128     15775.23
      8302.4  0.003871048    0.9454129 -0.0008876741     15773.64
      8302.6  0.003971596      0.94522 -0.0006809862     15772.48
      8302.8  0.004064873     0.945061 -0.0003763744     15769.88
        8303  0.004114043    0.9450501 -0.0002360735     15766.51
      8303.2   0.00411112    0.9451118 0.0001210506      15761.7
      8303.4  0.004308032    0.9450311 0.0002518131     15756.26
      8303.6  0.004497194    0.9451579 0.0004032871     15749.49
      8303.8  0.004560156    0.9452515 0.0003146988     15739.12
        8304  0.004717475    0.9454344 2.402419e-05     15726.86
      8304.2   0.00510325    0.9452829 -0.0001682013     15711.71
      8304.4  0.005413062    0.9451771 -0.0004843626     15690.49
      8304.6  0.005763934    0.9451169 -0.0005192881     15662.79
      8304.8  0.006224923    0.9450469 -0.0006667507     15626.49
        8305  0.006924612    0.9448674 -0.0008228123     15579.82
      8305.2  0.007596881    0.9446437 -0.0007668111     15520.91
      8305.4  0.008275281    0.9444587 -0.0004271863     15451.56
      8305.6  0.008668164    0.9444335 -0.0001405864     15372.85
      8305.8  0.008797472    0.9445257 0.0001100379     15295.55
        8306  0.008641929    0.9445312 0.0001980507     15223.24
      8306.2  0.008190415    0.9445467 0.0003612136     15163.66
      8306.4  0.007593805    0.9445919 0.0006233258     15122.58
      8306.6   0.00694055    0.9448147  0.000813738     15102.17
      8306.8  0.006191033    0.9450299 0.0009424996     15102.41
        8307  0.005504079    0.9451977 0.0008367362     15122.66
      8307.2  0.005033534    0.9453459 0.0005383242     15156.95
      8307.4   0.00465213     0.945484 0.0003530501     15200.04
      8307.6  0.004357185    0.9454606 0.0003801369     15250.78
      8307.8  0.004240132    0.9454802 0.0002422259     15307.48
        8308  0.003984729      0.94565 0.0004653623     15365.81
      8308.2   0.00356051    0.9456778 0.0004127869     15425.44
      8308.4   0.00345735    0.9458328 0.0002805117     15488.13
      8308.6  0.003407124    0.9458104 8.532366e-05     15553.37
      8308.8  0.003571012    0.9458744 -0.0002327509     15618.01
        8309  0.003898765    0.9457461 -0.0004457639     15678.24
      8309.2  0.004255568    0.9456466 -0.0007735497     15728.01
      8309.4  0.004868748    0.9454538 -0.0007044123     15767.92
      8309.6   0.00537299    0.9452556 -0.0006631619      15793.9
      8309.8  0.005886497    0.9451825 -0.0005111494      15805.7
        8310  0.006369275    0.9451161 -0.0003673373     15807.55
      8310.2  0.006630503    0.9450449 -0.0003120243     15802.02
      8310.4  0.006741595    0.9449617 -0.0001538619     15794.19
      8310.6  0.006734045    0.9449329 -1.482496e-05     15787.97
      8310.8  0.006649414     0.944993 -5.112797e-06     15785.11
        8311  0.006360274     0.945033 -7.573926e-05      15785.9
      8311.2  0.006325632    0.9449576 -0.0004943996     15793.21
      8311.4  0.006495087    0.9448723 -0.0003999371     15801.13
      8311.6   0.00675945    0.9445975 -0.0002934864     15803.86
      8311.8  0.007008842    0.9447131 -4.313547e-05     15797.13
        8312  0.007080115    0.9447229  0.000438875     15784.61
      8312.2  0.007062535    0.9448378 0.0004471376     15770.12
      8312.4  0.007010527    0.9449486 0.0004660495     15756.12
      8312.6  0.006711469    0.9450708 0.0003553117     15743.15
      8312.8  0.006464418    0.9450957 0.0001752239     15733.57
        8313  0.006575762    0.9451221 -9.257628e-05     15727.66
      8313.2  0.006907866    0.9450888 -0.0003961509     15718.05
      8313.4  0.007463625    0.9449967 -0.0006109508     15696.85
      8313.6  0.008231769    0.9447788 -0.0008085366     15661.06
      8313.8   0.00911947    0.9446333 -0.0005837991     15606.49
        8314  0.009901655     0.944442 -0.0003812615     15533.36
      8314.2   0.01053193    0.9445297 -0.0001440727     15450.97
      8314.4   0.01082527    0.9444738 0.0003990519     15366.02
      8314.6   0.01081709    0.9445181 0.0008458893     15287.66
      8314.8    0.0103526    0.9447612  0.001281726     15224.36
        8315  0.009604175    0.9452064  0.001584775     15179.72
      8315.2  0.008845793    0.9454992  0.001620161     15160.65
      8315.4  0.008051017    0.9457859  0.001265699     15165.72
      8315.6  0.007483131    0.9460573  0.001121262     15188.17
      8315.8  0.007051189    0.9462189 0.0009469494     15224.19
        8316  0.006696151    0.9463962 0.0008112744     15265.86
      8316.2  0.006535218    0.9465434 0.0006786618      15309.7
      8316.4  0.006326994    0.9467063 0.0005043623     15352.62
      8316.6  0.006227959    0.9467619 0.0004596124     15396.14
      8316.8  0.006138614    0.9467997 0.0004284748     15439.65
        8317   0.00590939    0.9469111 0.0003803996     15483.47
      8317.2  0.005776441    0.9470491  0.000292099     15528.26
      8317.4  0.005750863    0.9470662 5.263723e-05     15572.75
      8317.6  0.005866131    0.9470333 -1.147478e-05     15617.47
      8317.8  0.005981825    0.9469532 4.055027e-05     15660.48
        8318  0.006178762    0.9470399 0.0001047391     15701.43
      8318.2  0.006516143    0.9470986 0.0004867364     15736.65
      8318.4  0.006842065    0.9471171 0.0002339377     15767.17
      8318.6  0.007227088    0.9473426 0.0002738128     15793.48
      8318.8  0.007501519    0.9472271 0.0003456999     15815.19
        8319  0.007797339    0.9473177 0.0003163139     15834.38
      8319.2  0.008136989    0.9473937 0.0006416629     15849.87
      8319.4  0.008387072    0.9475957 0.0007295881     15862.49
      8319.6   0.00857977    0.9477404 0.0008778498     15873.28
      8319.8  0.008634118    0.9479013    0.0008369     15882.66
        8320  0.008742088     0.948096    0.0008443     15891.91
      8320.2  0.008781128    0.9482652 0.0008367744     15899.38
      8320.4  0.008951698    0.9484159 0.0006918624     15906.33
      8320.6  0.009067417    0.9485708 0.0006710509     15912.39
      8320.8  0.009135444    0.9486495 0.0008801382     15917.98
        8321  0.009287032     0.948802  0.001050263     15923.54
      8321.2  0.009313572      0.94912  0.001161925     15928.21
      8321.4  0.009440887     0.949411  0.001231274     15933.19
      8321.6  0.009487876     0.949579  0.001098524     15937.93
      8321.8  0.009501966    0.9497871 0.0009564888     15942.84
        8322  0.009560288    0.9499988  0.001266063        15948
      8322.2  0.009652436    0.9501762  0.001498238     15953.59
      8322.4  0.009581109    0.9505918  0.001537089     15958.89
      8322.6  0.009591037    0.9509857  0.001859437     15964.93
      8322.8  0.009654762    0.9512285  0.001717375     15971.04
        8323  0.009732255    0.9516637   0.00164065     15978.58
      8323.2  0.009871193    0.9519657  0.001697712     15986.66
      8323.4  0.009920325    0.9522982  0.001658475     15994.63
      8323.6  0.009986182    0.9525866  0.001703388     16002.17
      8323.8   0.01000248    0.9529905    0.0017391     16009.75
        8324  0.009940492    0.9533285   0.00177805     16016.04
      8324.2   0.01014026    0.9536895   0.00173815     16023.06
      8324.4    0.0102029    0.9540091  0.001691913     16028.24
      8324.6   0.01034229     0.954381  0.001871614     16032.36
      8324.8   0.01055814     0.954682  0.002112076     16035.96
        8325   0.01072904    0.9551867  0.002407214     16038.93
      8325.2   0.01083334    0.9556987  0.002769451        16041
      8325.4   0.01093464    0.9563068  0.002987063     16042.39
      8325.6    0.0111861    0.9568975  0.003223451     16044.52
      8325.8   0.01129194    0.9575764  0.003530363     16046.18
        8326   0.01137595    0.9582775  0.003726825     16047.24
      8326.2    0.0114954    0.9591311  0.003794364     16048.25
      8326.4   0.01165942     0.959879   0.00421855     16049.68
      8326.6   0.01181255    0.9606119  0.004311701     16050.76
      8326.8   0.01192266    0.9616523  0.004622827     16051.92
        8327   0.01197859    0.9625804  0.005057138     16052.32
      8327.2   0.01219853    0.9635773  0.005189451      16053.8
      8327.4   0.01232625    0.9646576  0.005539789      16054.6
      8327.6   0.01259164    0.9658039  0.005942364     16055.84
      8327.8   0.01271778    0.9670123  0.006357764     16056.83
        8328   0.01292721    0.9683312  0.006783702     16058.22
      8328.2   0.01314594    0.9697438  0.007272939     16059.05
      8328.4   0.01333297    0.9712309  0.007536978     16059.96
      8328.6   0.01360231    0.9728306  0.008205504     16061.01
      8328.8   0.01384356    0.9743607  0.009190843     16061.38
        8329   0.01413432    0.9763082   0.01039511     16062.59
      8329.2   0.01440812    0.9785835   0.01182634     16063.71
      8329.4   0.01460281    0.9811467   0.01319107     16064.13
      8329.6   0.01490003    0.9838218   0.01469241     16065.58
      8329.8   0.01525033    0.9868611   0.01667939     16066.47
        8330   0.01562111    0.9903375   0.01934766     16067.19
      8330.2   0.01593513    0.9944902   0.02264225     16067.65
      8330.4   0.01647948    0.9992999   0.02637667     16069.25
      8330.6   0.01696689     1.004975   0.03103101     16070.12
      8330.8   0.01749541     1.011439   0.03726611     16070.83
        8331   0.01805932     1.019315   0.04503795     16071.32
      8331.2   0.01882851     1.029113   0.05491994     16072.05
      8331.4   0.01960223     1.041005   0.06663607     16072.85
      8331.6   0.02051932     1.055375   0.07925263     16073.01
      8331.8   0.02156137     1.072624   0.09280231     16073.08
        8332   0.02286727     1.092515    0.1066091     16073.76
      8332.2   0.02444687     1.115247    0.1190479     16074.87
      8332.4   0.02623955     1.140662    0.1298953     16074.94
      8332.6   0.02826291     1.167862    0.1384922     16075.13
      8332.8   0.03056119     1.196431      0.14425     16075.11
        8333   0.03308107     1.226041    0.1477329     16074.75
      8333.2   0.03579173     1.256062    0.1484535     16074.49
      8333.4   0.03863585     1.286049    0.1463272     16074.33
      8333.6   0.04131198     1.315194    0.1429289     16073.83
      8333.8   0.04391097     1.343103    0.1389011     16073.87
        8334   0.04618337     1.370405     0.133732     16073.43
      8334.2   0.04813612     1.397169    0.1277544      16073.1
      8334.4   0.04967176      1.42218    0.1206252     16073.83
      8334.6    0.0505947     1.445306    0.1114807     16073.33
      8334.8    0.0511177     1.466905    0.1027415     16073.14
        8335   0.05129359     1.486354   0.09435006     16073.58
      8335.2    0.0511099     1.504373   0.08599919     16073.39
      8335.4   0.05094137     1.520786   0.07776753     16074.46
      8335.6   0.05041388     1.535705   0.06983123     16073.79
      8335.8   0.05017967     1.548568   0.06235639     16074.48
        8336   0.05011116     1.560238   0.05614346     16075.26
      8336.2   0.05020837     1.570671   0.05151395     16075.28
      8336.4   0.05066681     1.580619   0.04741634      16076.5
      8336.6   0.05131879     1.589779    0.0444213     16077.15
      8336.8   0.05223465     1.598171   0.04179349     16078.15
        8337   0.05324339     1.606208   0.04041674      16079.4
      8337.2   0.05430872     1.614054   0.04056441     16080.25
      8337.4    0.0556925     1.622113   0.04193377     16081.54
      8337.6    0.0572947     1.630622    0.0442333     16083.23
      8337.8   0.05894028     1.639755   0.04754165     16083.71
        8338   0.06086824     1.649441   0.05102454     16084.96
      8338.2   0.06299041     1.660146    0.0547343     16086.89
      8338.4   0.06534735     1.671442   0.05826339     16088.19
      8338.6   0.06786757     1.683543   0.06125353     16089.43
      8338.8   0.07055437     1.696052   0.06297815     16090.37
        8339   0.07364879     1.709149   0.06392244     16091.74
      8339.2   0.07696698     1.721825   0.06472877     16092.11
      8339.4   0.08073771     1.734681   0.06350603     16093.17
      8339.6   0.08480491     1.747835   0.06267026     16093.72
      8339.8   0.08925563     1.759954   0.06102387     16094.01
        8340   0.09433806     1.771961   0.05911003     16094.52
      8340.2    0.1000641       1.7835   0.05822271     16095.39
      8340.4     0.106583     1.795123   0.05739168      16095.4
      8340.6    0.1143172     1.806532   0.05675552     16096.08
      8340.8    0.1229394     1.817874   0.05623153     16096.52
        8341    0.1324149     1.828904   0.05667788     16097.04
      8341.2    0.1431618     1.840108   0.05829127     16097.08
      8341.4    0.1555605     1.851874   0.06123309     16098.16
      8341.6    0.1695393     1.864507   0.06503714     16098.59
      8341.8    0.1852397     1.877891   0.06848667     16099.17
        8342    0.2020924     1.892138   0.07226065     16099.99
      8342.2    0.2196258     1.906663   0.07729508     16100.28
      8342.4    0.2380209     1.922316   0.08244278     16100.76
      8342.6    0.2578157     1.939727    0.0886623     16101.25
      8342.8    0.2778885     1.958092   0.09423468     16101.88
        8343    0.2979763     1.977593   0.09901086      16102.9
      8343.2    0.3176918     1.997703    0.1032735     16103.17
      8343.4    0.3370241     2.018936    0.1072866     16103.87
      8343.6    0.3561182     2.040711    0.1113345     16104.73
      8343.8    0.3748036     2.063422    0.1145917     16105.06
        8344    0.3931012     2.086771    0.1179515     16106.08
      8344.2    0.4111175     2.110609    0.1209462     16106.44
      8344.4    0.4290225     2.135072    0.1231904     16106.62
      8344.6     0.447249     2.160179    0.1255019     16106.57
      8344.8    0.4655999     2.185323    0.1263696      16106.9
        8345    0.4842528      2.21101    0.1281771     16108.21
      8345.2    0.5031447     2.236167    0.1308887      16108.1
      8345.4    0.5230286     2.262721    0.1330731     16108.69
      8345.6    0.5435482     2.290034    0.1347827     16109.51
      8345.8    0.5652414     2.317469    0.1342334     16112.09
        8346     0.587149     2.343994    0.1322319     16112.57
      8346.2    0.6091845     2.370108    0.1308267     16113.33
      8346.4    0.6316012      2.39582    0.1302148      16114.4
      8346.6    0.6554029      2.42213    0.1298299     16115.45
      8346.8    0.6800507     2.448166    0.1263582     16116.47
        8347    0.7047682     2.473972    0.1211882        16117
      8347.2    0.7291969     2.496906    0.1154999     16117.67
      8347.4    0.7541789     2.519081    0.1089153     16118.52
      8347.6    0.7798095     2.540565    0.1030895     16118.84
      8347.8    0.8066569     2.561104   0.09592449     16119.48
        8348    0.8343519     2.579378   0.08708086     16119.92
      8348.2    0.8624822      2.59582   0.07684145     16119.79
      8348.4    0.8912362      2.61023   0.06776464     16120.09
      8348.6    0.9200594     2.622577   0.05884264     16119.79
      8348.8    0.9506326      2.63359   0.05028915     16120.29
        8349    0.9824282     2.642895   0.04250525     16120.05
      8349.2     1.015247     2.650461    0.0342433     16119.77
      8349.4     1.048874     2.656581   0.02741578      16119.5
      8349.6     1.083338     2.660984   0.01959199     16119.06
      8349.8     1.118801     2.664827   0.01418931     16119.13
        8350      1.15469     2.666135  0.009826296     16119.14
      8350.2     1.190815     2.667933  0.005788175     16119.28
      8350.4     1.227186     2.668845  0.002756888     16119.86
      8350.6     1.263402     2.669458 -2.875147e-05     16119.06
      8350.8     1.299392     2.668341 -0.003347902     16120.14
        8351      1.33443      2.66791  -0.00686917     16120.37
      8351.2     1.367933     2.666167 -0.008674492     16120.66
      8351.4     1.399166     2.663962  -0.01273057     16121.06
      8351.6     1.428969     2.661401   -0.0140303     16121.61
      8351.8      1.45769     2.657725  -0.01589559     16121.93
        8352     1.483654     2.654943  -0.01567952     16122.34
      8352.2     1.506327     2.651246  -0.01457283     16122.27
      8352.4     1.525977     2.648857  -0.01506898     16122.52
      8352.6     1.542598     2.646067  -0.01341153     16122.32
      8352.8     1.556384     2.642888  -0.01371094     16121.42
        8353     1.567131     2.640517   -0.0105507     16121.77
      8353.2     1.574133     2.637889 -0.008106148     16122.53
      8353.4     1.576781     2.637626 -0.004666851     16122.94
      8353.6     1.575844     2.636403  0.001048822      16123.5
      8353.8     1.571063     2.636783   0.00329731     16123.63
        8354     1.561539     2.638728   0.00875419     16124.58
      8354.2     1.547924     2.640264   0.01225073     16124.85
      8354.4     1.531035     2.643406   0.01641432     16125.59
      8354.6      1.51057     2.646584   0.02114168     16126.45
      8354.8     1.487268     2.651859   0.02477851     16126.51
        8355     1.462195     2.657178   0.03068117     16127.72
      8355.2     1.435147     2.663229   0.03301229     16128.22
      8355.4     1.407118     2.671129   0.03697788        16129
      8355.6     1.378628     2.678269   0.03830845     16129.78
      8355.8     1.350215      2.68676   0.03837443     16131.41
        8356      1.32189     2.693876   0.03985421     16131.16
      8356.2     1.294523     2.701828   0.03891741     16132.35
      8356.4     1.268106     2.710152    0.0390552     16133.58
      8356.6      1.24363     2.717894   0.03667766     16134.06
      8356.8     1.220125      2.72512   0.03407768     16134.83
        8357     1.198174      2.73117   0.03050661     16136.23
      8357.2     1.177663     2.737414   0.02670573     16137.26
      8357.4     1.159785     2.742299   0.02205066      16137.9
      8357.6     1.143516     2.746484   0.01779694     16139.19
      8357.8     1.128902     2.748811   0.01223673     16140.25
        8358     1.115402     2.751652  0.006826735     16140.11
      8358.2     1.103476     2.752089   0.00318415     16140.94
      8358.4     1.092916     2.751946 -0.002660428     16142.23
      8358.6     1.083665     2.751358 -0.006301327     16142.24
      8358.8     1.075574     2.749524 -0.009778993     16142.97
        8359     1.068407     2.747047  -0.01396854     16144.29
      8359.2      1.06156     2.744123  -0.01657044     16144.91
      8359.4     1.055656     2.740183  -0.01779732     16146.05
      8359.6     1.050267     2.736267  -0.02014218     16147.21
      8359.8      1.04527      2.73281  -0.02090964     16147.16
        8360     1.040806     2.728009  -0.02169256     16148.23
      8360.2     1.036386     2.723456  -0.02292243     16148.67
      8360.4     1.032232     2.718913  -0.02215009     16149.98
      8360.6     1.028127     2.714472  -0.02160048     16150.37
      8360.8     1.024126     2.710289  -0.01977791     16151.04
        8361     1.020157     2.706175  -0.01895756     16151.44
      8361.2      1.01639     2.703091  -0.01848316     16152.36
      8361.4     1.012574     2.699306  -0.01746796     16153.15
      8361.6     1.008963     2.695502  -0.01768687     16154.59
      8361.8      1.00537     2.692201  -0.01707616     16155.49
        8362     1.001748     2.688941  -0.01596135     16156.04
      8362.2    0.9981991     2.685645  -0.01714343     16156.99
      8362.4    0.9947099     2.682733   -0.0175185     16157.56
      8362.6    0.9915691     2.678486  -0.01832152     16158.71
      8362.8    0.9885356     2.674927  -0.01918482      16159.6
        8363     0.985659     2.670987  -0.01980675      16161.2
      8363.2    0.9828379     2.667385  -0.02036898     16162.11
      8363.4    0.9803222     2.662641  -0.02096188     16163.09
      8363.6    0.9781959     2.658631  -0.02236855     16163.81
      8363.8    0.9764929     2.654218  -0.02260404     16164.84
        8364    0.9751718      2.64949  -0.02436478     16165.72
      8364.2    0.9742192     2.644558  -0.02506954      16167.2
      8364.4    0.9737933      2.63914  -0.02457757     16167.83
      8364.6    0.9738895     2.634162  -0.02368743     16168.89
      8364.8    0.9743938     2.629828  -0.02255726      16170.1
        8365    0.9752935     2.625608  -0.02239769        16171
      8365.2    0.9766635     2.621094  -0.02216036      16172.3
      8365.4    0.9787658     2.616244  -0.02247801     16173.54
      8365.6    0.9809665       2.6121  -0.02117986     16174.12
      8365.8      0.98364     2.607625  -0.01846629     16175.66
        8366    0.9867313      2.60415  -0.01707473     16176.26
      8366.2    0.9900978     2.601471  -0.01475535     16177.84
      8366.4    0.9935765      2.59844  -0.01281318     16178.94
      8366.6    0.9971275     2.595821  -0.01164772     16179.97
      8366.8     1.000708     2.593899  -0.01077026     16180.88
        8367      1.00429     2.592153 -0.009479597     16181.36
      8367.2     1.007751     2.589824 -0.008673432     16182.88
      8367.4     1.011062     2.588237  -0.00746976     16183.31
      8367.6     1.014172     2.586961 -0.006764148     16184.24
      8367.8     1.016879     2.586177 -0.006218774     16185.12
        8368     1.019442     2.584413 -0.006011861      16186.6
      8368.2     1.021662     2.583262 -0.005660559     16188.03
      8368.4     1.023404     2.582151 -0.004754248     16188.99
      8368.6     1.024639     2.581649 -0.004277935     16190.19
      8368.8     1.025394     2.580609 -0.003700965     16191.37
        8369     1.025642      2.57984 -0.004363407      16192.3
      8369.2     1.025672      2.57919 -0.002983097     16193.67
      8369.4     1.025005     2.578158  -0.00215626      16194.6
      8369.6     1.023916     2.578223 -0.001661579     16195.47
      8369.8     1.022345     2.578115 0.0003517131     16196.05
        8370     1.020433     2.577861 0.0004832661      16197.1
      8370.2     1.018024     2.578439  0.001344179     16197.52
      8370.4     1.015396     2.578609  0.002314317     16198.01
      8370.6     1.012427      2.57919  0.003436907     16199.13
      8370.8     1.008994     2.579713  0.005103831     16199.62
        8371     1.005331     2.581189  0.006490845     16200.47
      8371.2     1.001866     2.582693   0.00823704        16202
      8371.4    0.9980932     2.584383  0.008783106     16202.26
      8371.6    0.9941033     2.586302   0.01019552     16203.16
      8371.8    0.9900339     2.588215   0.01155438     16204.28
        8372    0.9857364     2.590849   0.01226964     16204.64
      8372.2     0.981438     2.593626   0.01347938     16205.91
      8372.4    0.9770675     2.596118   0.01440989     16206.87
      8372.6     0.972489     2.598999   0.01518012     16207.32
      8372.8    0.9678723     2.602377   0.01679898     16207.89
        8373    0.9633006     2.605771   0.01753957      16209.1
      8373.2    0.9586204     2.609557    0.0185239     16209.55
      8373.4    0.9538177     2.613031    0.0205489     16210.08
      8373.6    0.9490158     2.617196   0.02062572      16210.7
      8373.8    0.9441585      2.62221     0.021731     16211.02
        8374     0.939221     2.626058    0.0218133     16210.91
      8374.2    0.9343433     2.630415   0.02149407     16211.47
      8374.4    0.9295062     2.634647   0.02314146     16211.86
      8374.6    0.9245089     2.639405   0.02447201     16212.73
      8374.8    0.9194166     2.644571   0.02494816     16213.32
        8375    0.9145093     2.649993   0.02490054     16214.43
      8375.2    0.9097743     2.654605   0.02555896      16215.4
      8375.4    0.9050046     2.659325   0.02520638     16215.42
      8375.6    0.9001205     2.665018   0.02730037     16215.84
      8375.8    0.8952222     2.670158   0.02858324     16215.93
        8376    0.8903889     2.676445    0.0282608     16216.72
      8376.2    0.8857715     2.682192   0.02877506     16217.39
      8376.4    0.8815051     2.687627   0.02853494        16219
      8376.6    0.8773263     2.693178   0.02869342     16220.21
      8376.8    0.8731177     2.699273   0.03012441     16221.05
        8377    0.8691166     2.705147   0.03029608     16222.41
      8377.2    0.8652993     2.711726   0.03052597     16223.19
      8377.4    0.8617248     2.717415   0.03151585     16223.99
      8377.6    0.8582952     2.723694   0.02956952      16224.6
      8377.8    0.8551154     2.730359   0.03029662      16225.7
        8378    0.8520833     2.735382   0.02961531     16226.45
      8378.2    0.8492329     2.741652    0.0294012     16227.07
      8378.4    0.8465605     2.747386    0.0301293     16228.15
      8378.6    0.8439998      2.75388   0.02958489     16228.82
      8378.8    0.8415946     2.759485   0.02993163     16229.03
        8379    0.8393351      2.76532   0.02749035     16229.93
      8379.2    0.8372181     2.771332   0.02663636     16229.96
      8379.4    0.8352645     2.775873    0.0268239     16230.71
      8379.6    0.8334196     2.780794   0.02503954     16231.09
      8379.8    0.8318001     2.786779    0.0250094     16232.42
        8380    0.8302615     2.791363   0.02426294     16233.66
      8380.2    0.8288653      2.79588   0.02229652     16234.45
      8380.4    0.8275818     2.800205   0.02095558     16235.25
      8380.6    0.8265043     2.804617   0.01940297     16235.88
      8380.8    0.8257023     2.808128   0.01787332     16236.84
        8381    0.8249255     2.811402   0.01628302     16237.47
      8381.2    0.8244117     2.814503   0.01470003     16238.65
      8381.4     0.823995     2.817643   0.01228056     16239.08
      8381.6    0.8237261     2.819888   0.01072145     16239.68
      8381.8    0.8235603     2.821227   0.00857489     16240.38
        8382    0.8238902      2.82308  0.006247846     16241.92
      8382.2    0.8241943     2.824503  0.005201188      16243.1
      8382.4    0.8246005     2.824886  0.002450743     16243.84
      8382.6    0.8252198     2.825388  0.000683651     16244.66
      8382.8    0.8260144     2.825041  -0.00203742     16245.19
        8383     0.826936      2.82505 -0.003836965     16245.76
      8383.2    0.8280516     2.823256 -0.004442077     16247.27
      8383.4    0.8293188     2.822318 -0.007771551     16248.19
      8383.6    0.8305267     2.821487 -0.007913873     16248.48
      8383.8    0.8318871     2.818833  -0.01041778     16249.81
        8384    0.8332726     2.816925  -0.01219099     16249.98
      8384.2    0.8347085     2.813984  -0.01353514     16250.79
      8384.4    0.8363234     2.811735   -0.0150442     16251.97
      8384.6    0.8376538     2.808004  -0.01540235     16252.08
      8384.8     0.839114      2.80489  -0.01792934     16252.88
        8385    0.8406392     2.801662  -0.01845767     16254.19
      8385.2     0.841946     2.797391  -0.01951693     16253.39
      8385.4    0.8434668     2.793238  -0.02146078     16254.76
      8385.6    0.8448329     2.789276  -0.02205267     16254.92
      8385.8    0.8462214     2.784494  -0.02380554     16255.73
        8386    0.8476519     2.779749  -0.02635159     16256.63
      8386.2     0.849152     2.774194  -0.02672847      16257.9
      8386.4    0.8503283     2.768195  -0.02822463     16257.66
      8386.6    0.8517158     2.763111  -0.02887589     16258.51
      8386.8    0.8531003     2.757169  -0.02932152     16259.01
        8387    0.8544276     2.751093  -0.03003393     16259.97
      8387.2    0.8556583     2.744738  -0.03048841     16260.33
      8387.4    0.8567808     2.739084  -0.03009708     16260.44
      8387.6    0.8580855     2.732779  -0.03013934     16261.68
      8387.8       0.8594     2.727015  -0.03139953     16262.79
        8388    0.8605798     2.720626   -0.0306428     16263.78
      8388.2    0.8618367     2.713964  -0.03156201     16264.97
      8388.4     0.863189     2.708264  -0.03096116      16265.9
      8388.6    0.8645112     2.701766   -0.0294081     16266.57
      8388.8     0.865775     2.695857  -0.02972439     16267.03
        8389    0.8670374     2.690438   -0.0282625     16267.79
      8389.2    0.8683842     2.684485  -0.02760142     16268.58
      8389.4    0.8697056     2.679156  -0.02701878     16268.74
      8389.6    0.8711408     2.673776  -0.02719317     16269.11
      8389.8    0.8724451     2.668823  -0.02656128     16269.59
        8390    0.8739197      2.66273  -0.02533424     16270.38
      8390.2     0.875629     2.657907  -0.02542056     16271.77
      8390.4    0.8770996     2.653509  -0.02384053     16271.84
      8390.6    0.8787615     2.648486   -0.0231226     16272.34
      8390.8    0.8804519     2.643658  -0.02377812      16272.4
        8391    0.8821035     2.639409  -0.02283976     16272.65
      8391.2    0.8837708     2.634486  -0.02262214     16272.96
      8391.4    0.8855991     2.630214  -0.02246897     16273.46
      8391.6    0.8875816      2.62556  -0.02092926     16274.51
      8391.8    0.8895343     2.621434  -0.02061728     16274.48
        8392    0.8914899     2.617743  -0.01899518     16274.53
      8392.2    0.8937222      2.61372  -0.01915037     16275.92
      8392.4    0.8958762     2.610364  -0.01887871     16276.51
      8392.6    0.8982059     2.606113  -0.01749317     16277.61
      8392.8    0.9005965      2.60264  -0.01685719     16278.36
        8393    0.9030645     2.599726  -0.01556538        16279
      8393.2    0.9056448     2.596878    -0.014366      16279.9
      8393.4     0.908238     2.593661  -0.01475332     16281.26
      8393.6     0.911087     2.591147  -0.01410697     16282.58
      8393.8    0.9138793     2.587923  -0.01347515     16283.62
        8394     0.916946     2.585593  -0.01250529     16284.28
      8394.2    0.9200568     2.582881  -0.01095479     16284.95
      8394.4    0.9230807     2.581143  -0.01049285     16285.39
      8394.6    0.9262819     2.579159 -0.008588361     16285.89
      8394.8    0.9295324     2.577198 -0.008199322     16286.45
        8395    0.9327797      2.57601 -0.007393709     16286.84
      8395.2    0.9361484     2.574583   -0.0064567     16287.72
      8395.4    0.9395439     2.573244 -0.006428735     16288.13
      8395.6    0.9429588     2.572033 -0.005838645     16288.61
      8395.8    0.9465195     2.570867 -0.004665658     16289.08
        8396     0.949986     2.569912 -0.003674583     16289.73
      8396.2    0.9534492     2.569512 -0.002532521     16290.83
      8396.4    0.9570105     2.569093 -0.001498147     16291.97
      8396.6     0.960518     2.568841 -0.0007256245     16292.64
      8396.8    0.9641946     2.568714 -0.0006030354     16294.07
        8397    0.9676413     2.568931 -0.0001132502     16294.46
      8397.2    0.9712623     2.568611 -0.000158289     16295.49
      8397.4     0.974762     2.568751 -0.0005038341     16296.34
      8397.6    0.9782074     2.568587 0.0003122227     16297.22
      8397.8    0.9817136     2.568528 -0.0002400847     16297.44
        8398    0.9850748     2.568861 0.0004313016        16298
      8398.2    0.9882076     2.568559 0.0008212963     16297.31
      8398.4    0.9912419     2.568932 -5.462432e-05     16297.76
      8398.6    0.9942901     2.569185 0.0001063324     16298.01
      8398.8    0.9973633     2.568817 -0.001115889     16298.17
        8399     1.000431     2.568644 -0.001477248     16299.01
      8399.2     1.003313      2.56804 -0.0009652758     16299.95
      8399.4      1.00619     2.568004 -0.001143891     16301.54
      8399.6     1.008875     2.568045 -0.001949122     16301.17
      8399.8     1.011674     2.567728 -0.002726138     16302.09
        8400     1.014354     2.567167 -0.002822458     16302.66
        8401     1.027837     2.564229 -0.003128481     16305.67
        8402     1.041778     2.560725 -0.002661413     16309.26
        8403      1.05598     2.557521 -0.001744441     16312.79
        8404     1.069392     2.556521 -2.392409e-05     16316.43
        8405     1.081969     2.557251  0.002231436     16320.83
        8406     1.092644     2.560629  0.004380092     16325.15
        8407      1.09966     2.566446  0.006105583     16328.98
        8408     1.102871     2.574042  0.006923808     16334.05
        8409     1.102547     2.581674  0.006813186     16338.86
        8410     1.099519     2.588324  0.006378405     16343.66
        8411     1.094782     2.593699  0.005979093     16346.65
        8412     1.088515     2.599555   0.00640136     16350.04
        8413     1.081738      2.60559  0.007396783     16354.78
        8414     1.074639      2.61393  0.008648877     16360.04
        8415      1.06704     2.623286   0.01020142     16364.98
        8416     1.059195     2.634151   0.01103139     16368.97
        8417     1.051674     2.646396   0.01117262     16373.44
        8418     1.044544     2.658055   0.01110917     16378.68
        8419     1.037735     2.667977   0.01075552     16382.61
        8420     1.030802     2.678587   0.01048806        16386
        8421     1.023856     2.689418   0.01105814     16390.17
        8422     1.016695     2.700007   0.01174427     16393.55
        8423      1.00947     2.712209   0.01246807     16396.54
        8424     1.003105     2.725565   0.01341073     16398.76
        8425    0.9980267      2.73929   0.01384237     16400.94
        8426    0.9934104      2.75365   0.01381937     16402.85
        8427     0.989049     2.767579   0.01341354     16405.93
        8428    0.9850164     2.780842   0.01235669      16409.5
        8429    0.9814481     2.792944    0.0104587     16413.65
        8430    0.9786254     2.803077  0.007479936     16416.89
        8431    0.9767985     2.809414  0.004049805     16421.31
        8432    0.9759797     2.810762 5.695316e-05     16425.92
        8433    0.9762683     2.809143 -0.003805619     16429.74
        8434    0.9771781     2.803305 -0.007260342     16433.07
        8435    0.9787401     2.794191  -0.01063832     16437.66
        8436    0.9804246      2.78172  -0.01318535     16441.84
        8437    0.9821331      2.76659  -0.01495343     16444.28
        8438    0.9837793     2.750564  -0.01598506     16447.31
        8439    0.9852739     2.734377  -0.01664775     16452.22
        8440    0.9868338      2.71778  -0.01707007     16457.01
        8441    0.9882394     2.699999    -0.017137     16461.45
        8442    0.9891128     2.682283    -0.016993     16465.68
        8443    0.9896454     2.665829  -0.01609087     16469.23
        8444    0.9899677     2.649808  -0.01475357     16473.28
        8445    0.9903562     2.635636   -0.0133905     16476.41
        8446    0.9909952     2.623269  -0.01187063     16479.03
        8447    0.9918318     2.612267  -0.01102766     16482.12
        8448    0.9924188     2.602326  -0.01108429     16485.32
        8449    0.9927525     2.591525  -0.01176191     16490.52
        8450    0.9930414     2.578932  -0.01322887      16495.4
        8451    0.9929508      2.56522  -0.01469345     16499.34
        8452    0.9929271      2.54941  -0.01546297     16503.48
        8453    0.9932397     2.532751  -0.01574252      16507.7
        8454    0.9934598      2.51708  -0.01523168      16510.6
        8455    0.9935703      2.50225  -0.01384715     16513.72
        8456    0.9939402     2.488483  -0.01199245      16518.8
        8457    0.9941436     2.477363 -0.009527506     16522.41
        8458     0.994417      2.46911  -0.00655896     16526.16
        8459    0.9945427      2.46414 -0.003483219     16530.23
        8460    0.9945279     2.462248 -0.0005485737     16533.53
        8461     0.994547      2.46343  0.002107386     16537.46
        8462    0.9944407     2.466916  0.004557673     16541.59
        8463    0.9937816     2.472569   0.00663235     16544.83
        8464    0.9928012     2.480478  0.008326943     16548.15
        8465    0.9911657     2.489959  0.009639229     16551.37
        8466    0.9889226     2.500224   0.01062055        16556
        8467    0.9858683     2.511126   0.01123416     16559.62
        8468     0.981904      2.52296   0.01142585      16562.5
        8469    0.9775441     2.534896   0.01142531     16565.99
        8470    0.9725539     2.545927   0.01053969     16569.32
        8471    0.9672908     2.556827  0.009341861     16571.42
        8472    0.9622754     2.565119  0.007891187     16574.33
        8473    0.9582854     2.572263  0.005779909      16578.6
        8474    0.9551537     2.577492  0.003935073     16582.72
        8475    0.9526353     2.579947  0.001942601     16585.84
        8476    0.9509966      2.58086 -2.860216e-05     16588.81
        8477     0.950591     2.580034 -0.001371346      16591.7
        8478     0.951247     2.577377 -0.002429008     16593.88
        8479    0.9533721     2.574462 -0.002675648     16597.76
        8480    0.9566577     2.571143 -0.001995342     16602.52
        8481    0.9611238     2.569331 -0.0005025552     16608.74
        8482    0.9664048     2.569396  0.001731636     16613.93
        8483    0.9719175     2.572451  0.004644124     16618.27
        8484    0.9777284      2.57807  0.008164701     16622.43
        8485    0.9831401     2.587907   0.01166544     16624.41
        8486     0.988697     2.602055   0.01496924     16627.05
        8487     0.994195     2.619113   0.01758141     16630.61
        8488    0.9992436     2.637947   0.01905073     16634.57
        8489     1.003866     2.658233   0.01962995     16636.68
        8490     1.008253     2.678258   0.01922577     16640.33
        8491     1.012147     2.697633   0.01776373     16645.72
        8492     1.015218      2.71485   0.01579297     16650.94
        8493     1.017623     2.729288   0.01307101     16655.28
        8494      1.01963      2.74143   0.01039319     16658.67
        8495     1.021241     2.749917  0.007824735     16661.05
        8496     1.022287     2.756423  0.005527475     16664.51
        8497     1.023007     2.760587   0.00363691     16668.82
        8498     1.023506      2.76354   0.00208473     16671.13
        8499     1.023571     2.764465 0.0007437685     16672.45
        8500     1.023841     2.764762  -0.00095258     16675.99
        8501      1.02429     2.763562  -0.00233814     16680.94
        8502     1.025193     2.759729 -0.004314602     16686.59
        8503     1.026095     2.755112 -0.006428254     16690.47
        8504     1.027215     2.747503 -0.008573059     16694.85
        8505     1.028536     2.737849   -0.0108689     16697.56
        8506     1.030206     2.725437  -0.01287617     16701.16
        8507     1.031887     2.711636  -0.01483797     16704.46
        8508     1.033827     2.695999  -0.01664588     16708.12
        8509     1.035729     2.678497  -0.01858993      16711.3
        8510     1.037179     2.658853  -0.02019398     16715.03
        8511      1.03865     2.637277  -0.02155352     16719.04
        8512     1.040206     2.615223  -0.02245908     16723.79
        8513     1.042721     2.592283  -0.02308451     16728.39
        8514     1.046743     2.569017  -0.02370573     16729.78
        8515     1.050799     2.544939  -0.02409743     16717.14
        8516     1.052219       2.5204  -0.02422037     16695.52
        8517     1.052466     2.495893  -0.02355924      16687.9
        8518     1.051947     2.472136  -0.02207624     16687.44
        8519     1.050296     2.450702  -0.02008254     16687.59
        8520     1.049157     2.432095  -0.01744743     16687.26
        8521     1.046768     2.415563  -0.01453245     16690.02
        8522     1.043127     2.402346  -0.01140175     16694.98
        8523      1.03991     2.392572 -0.007774401     16699.44
        8524     1.037569     2.386488 -0.004250307     16705.84
        8525     1.035731     2.384466 -0.0008203007     16708.85
        8526     1.031964     2.385345  0.002414628     16711.24
        8527     1.026945     2.389291  0.005327584     16715.28
        8528     1.022745     2.396146  0.007873087     16723.63
        8529     1.018441     2.405776  0.009971085     16729.96
        8530     1.013732     2.416837   0.01148588     16732.26
        8531     1.009108     2.429175   0.01241508     16732.55
        8532     1.005895      2.44209   0.01284094     16736.79
        8533     1.001789     2.455436    0.0129558     16740.02
        8534    0.9959778     2.468201   0.01258615     16742.29
        8535    0.9908591     2.480998   0.01185545     16749.02
        8536     0.986849     2.492435   0.01116016     16753.26
        8537    0.9835648     2.502858   0.01014697      16755.6
        8538    0.9815216     2.512841  0.009030271     16755.24
        8539    0.9789798     2.521586  0.007858869     16756.49
        8540     0.975704     2.528556  0.006506026     16765.23
        8541     0.973869     2.534294  0.005169104        16770
        8542     0.973601     2.538866  0.003773064     16771.81
        8543    0.9730016     2.542263   0.00233255     16776.68
        8544    0.9738541     2.543648  0.001038112     16783.08
        8545    0.9764963     2.543624 -0.0002971627     16787.11
        8546    0.9783118     2.543018 -0.001108652     16789.04
        8547     0.980154     2.541074 -0.001687227     16792.07
        8548    0.9819827     2.539213 -0.002130221     16796.83
        8549    0.9837051     2.536875 -0.002393888     16800.99
        8550    0.9863571     2.534497 -0.002626069     16805.47
        8551    0.9887809     2.531498 -0.002881158     16811.67
        8552    0.9907196     2.528709 -0.003041967     16813.69
        8553    0.9932788      2.52535 -0.003135966      16816.1
        8554    0.9959694     2.522329 -0.003443827     16820.04
        8555    0.9976992     2.518954 -0.003612929     16823.22
        8556     1.000003     2.514934 -0.003948708     16827.31
        8557     1.002579     2.510898 -0.004276431     16831.72
        8558     1.003813     2.506534 -0.004243744     16836.82
        8559     1.004675     2.501849 -0.004208633     16840.22
        8560     1.005381     2.497959 -0.003745228     16840.54
        8561     1.005867     2.494064 -0.002955044     16842.21
        8562     1.006528     2.491554 -0.001901575     16848.78
        8563     1.007566     2.490029 -0.0003269261     16853.66
        8564     1.008287     2.490352  0.001376358     16857.26
        8565     1.007806     2.492756  0.003270185     16860.97
        8566     1.007607     2.497059  0.005038127     16866.61
        8567     1.007128     2.503109  0.006571388     16868.83
        8568     1.007722     2.510505   0.00787744     16870.22
        8569     1.007557     2.519042  0.008806582     16874.21
        8570     1.007406     2.528569  0.009516208     16879.87
        8571     1.008791     2.538336  0.009507123     16886.67
        8572     1.010195      2.54857  0.009100838     16894.81
        8573     1.011312      2.55707   0.00854621     16901.32
        8574     1.012756     2.564972  0.007645308     16903.44
        8575     1.014006      2.57252  0.006976833     16905.48
        8576     1.014132     2.579151  0.006103492     16910.24
        8577      1.01402     2.584978  0.005176943     16914.18
        8578     1.014383     2.589386  0.004232454     16919.29
        8579      1.01515     2.593228  0.003358273     16925.02
        8580     1.015703     2.596081  0.002333037     16928.55
        8581      1.01641     2.598411  0.001368092     16933.06
        8582     1.016652     2.598718 0.0003806154     16938.02
        8583      1.01672     2.598701 -0.0008326743     16942.62
        8584     1.017269     2.597603 -0.001812239     16944.21
        8585     1.018267      2.59508 -0.003027532     16945.23
        8586     1.018432     2.591469 -0.004276822     16946.77
        8587     1.018631     2.586591 -0.005642958     16947.92
        8588     1.019608     2.580496 -0.006710628     16949.85
        8589     1.020427     2.572508 -0.007870593     16953.39
        8590      1.02069     2.564627 -0.008956022      16961.5
        8591     1.020105     2.555108 -0.009693258     16965.53
        8592     1.018209     2.544672  -0.01051068     16966.96
        8593      1.01709     2.533735  -0.01118821     16967.12
        8594     1.016301     2.522584  -0.01152931     16970.38
        8595      1.01455     2.510355  -0.01165538      16974.7
        8596     1.012524     2.498555  -0.01168326     16977.38
        8597     1.010966     2.487114  -0.01128668     16979.16
        8598     1.009347     2.475851   -0.0108646     16981.44
        8599     1.007769     2.465209  -0.01045413     16985.38
        8600     1.006048     2.455096 -0.009792429     16991.41
        8601     1.004308     2.445297 -0.009108853     16995.72
        8602     1.002496     2.436681 -0.008255736     16996.29
        8603     1.000858     2.428773  -0.00725756     16999.88
        8604     0.999596     2.422073 -0.006355822     17007.35
        8605     0.998704     2.416267 -0.005403257     17014.68
        8606    0.9979841     2.411258 -0.004496321     17018.58
        8607       0.9969      2.40716 -0.003547696     17022.44
        8608    0.9961209     2.404088 -0.002577392     17026.49
        8609    0.9946189     2.402076 -0.001814487     17029.05
        8610    0.9933023     2.400948 -0.001115611     17032.86
        8611    0.9929724     2.399902 -0.0006403843      17037.2
        8612    0.9934317     2.399626 -0.0003661127     17041.54
        8613    0.9937138     2.399515 -4.035893e-05     17044.35
        8614    0.9930695     2.399484 2.238547e-05     17046.15
        8615    0.9926167     2.399741 -1.172154e-05     17050.66
        8616    0.9920104     2.399715 -8.524814e-05     17052.45
        8617    0.9919875     2.399468 -0.0002619317     17053.76
        8618    0.9915095     2.399143 -0.0003919128     17055.61
        8619    0.9909349     2.398693 -0.0002612306     17056.63
        8620    0.9912742     2.398147 -0.0003438496     17056.11
        8621    0.9916764     2.398423 -0.0003122042     17051.74
        8622    0.9928865     2.397768 -8.058489e-05     17031.53
        8623    0.9944178     2.397444 -0.0003957243     16947.32
        8624    0.9941044     2.397825 -0.000181631     16814.38
        8625    0.9938873      2.39684 -0.0002461858     16842.57
        8626    0.9933125     2.397041 -0.0004561942     16900.37
        8627    0.9951829     2.396459 -0.0001288405     17050.98
        8628    0.9970025        2.396 -8.431577e-05      17089.8
        8629    0.9982989     2.396324 0.0002375204     17099.94
        8630    0.9998378     2.396704 0.0007195823     17105.71
        8631     1.001053      2.39741  0.001029081     17112.29
        8632     1.002087     2.398879  0.001236615     17117.83
        8633      1.00292     2.400441  0.001573978        17120
        8634     1.003193      2.40165  0.001627394     17121.82
        8635     1.003274     2.403705  0.001796563     17125.22
        8636     1.003163     2.405388  0.002132367     17131.09
        8637     1.003047     2.407627  0.002037683     17136.67
        8638     1.003367      2.41018  0.002162442     17139.25
        8639     1.003525     2.411856  0.002171226     17141.12
        8640     1.003599     2.414038  0.002127147     17144.24
        8641     1.003959     2.416312  0.002085738     17146.34
        8642     1.004173     2.418688  0.001939333     17148.28
        8643     1.004602     2.420199   0.00181324     17150.37
        8644     1.005241     2.421795  0.001524776     17154.15
        8645     1.005587     2.423565  0.001406592     17156.16
        8646     1.005505     2.424787  0.001252244     17161.11
        8647     1.005658     2.425825 0.0009213954      17166.1
        8648     1.006215     2.426804 0.0008468044     17170.82
        8649     1.007079      2.42725 0.0007624164     17176.31
        8650     1.007385     2.428175 0.0007152915      17180.7
        8651     1.007679     2.428875  0.000754044     17185.36
        8652     1.008666     2.429665 0.0007812016     17190.94
        8653     1.009701     2.430267 0.0008923479     17194.15
        8654      1.01066     2.431299 0.0008292706     17196.13
        8655     1.011046     2.432445 0.0009322636     17200.31
        8656     1.011488     2.432983 0.0009794039     17205.71
        8657     1.012385     2.433996 0.0009557942     17209.15
        8658     1.012929     2.435217  0.001136368     17211.86
        8659     1.013481     2.436268  0.001221389     17215.17
        8660     1.014109     2.437528  0.001306499     17217.05
        8661     1.014655     2.438881  0.001496924     17220.42
        8662     1.014474     2.440443  0.001589195     17224.13
        8663     1.014229     2.442255  0.001662969      17228.1
        8664     1.014569     2.443885  0.001571368     17230.94
        8665     1.014729     2.445533  0.001403846     17232.52
        8666      1.01423     2.446728  0.001144758      17233.7
        8667     1.013113     2.447871 0.0008803768      17237.3
        8668     1.012338     2.448464 0.0006199151     17242.02
        8669     1.011897     2.449055 0.0001625022     17245.74
        8670     1.011925     2.449208 -0.0002352975     17250.09
        8671     1.010355     2.448521 -0.000798874     17254.75
        8672     1.007734     2.447523 -0.001399551     17256.17
        8673     1.005845     2.445859 -0.001841011     17259.18
        8674     1.004571      2.44361 -0.002354528     17263.31
        8675     1.003435     2.441157  -0.00278157      17265.3
        8676     1.001981     2.438105 -0.003050139      17267.9
        8677     1.000373     2.434733 -0.003493617      17272.2
        8678    0.9985341     2.431409 -0.003724611     17276.77
        8679     0.996699     2.427182 -0.004011841     17281.94
        8680     0.995281     2.423206 -0.004302504      17284.9
        8681    0.9939027     2.418685 -0.004377762     17288.74
        8682    0.9926231     2.414199 -0.004424865     17292.87
        8683    0.9920656     2.409671 -0.004466839     17296.45
        8684    0.9917164     2.405507  -0.00454087      17298.8
        8685    0.9912093     2.400818 -0.004561313     17299.86
        8686    0.9903375     2.396036 -0.004603629      17301.6
        8687    0.9894891     2.391426 -0.004399402     17304.04
        8688    0.9892453     2.387092 -0.004032467     17306.31
        8689    0.9892102     2.383221 -0.003710082     17309.86
        8690    0.9894521     2.379906 -0.003185419     17313.83
        8691    0.9900818     2.376586 -0.002739754     17317.29
        8692    0.9903802      2.37435 -0.002418993     17319.99
        8693    0.9903197     2.372262  -0.00190469     17323.63
        8694    0.9904401      2.37023 -0.001561408     17327.95
        8695    0.9905217     2.368967 -0.001135293     17331.65
        8696    0.9902621     2.368105 -0.0008260304     17336.16
        8697    0.9902646      2.36772 -0.0006736398     17335.74
        8698    0.9905374     2.366926 -0.0004860199     17323.28
        8699    0.9906861     2.366272 -0.0004446841     17311.23
        8700    0.9905958     2.366161 -0.000504234     17317.12
        8701    0.9905452     2.365942 -0.0005860773     17328.01
        8702    0.9910694     2.364909 -0.0009242108     17341.91
        8703    0.9912529     2.363928 -0.001236007     17350.71
        8704    0.9913579     2.362464 -0.001405712     17355.33
        8705    0.9911389     2.360998 -0.001874648     17355.71
        8706    0.9907709     2.359286 -0.002200963     17347.34
        8707    0.9907707     2.356429 -0.002619617     17337.92
        8708     0.990981      2.35366 -0.003060053     17343.43
        8709     0.991237     2.350519 -0.003266191     17353.71
        8710     0.991096     2.347046 -0.003540174     17365.02
        8711     0.990532     2.343365 -0.003770226     17374.02
        8712    0.9902143     2.339499 -0.003854715     17379.54
        8713    0.9902176     2.335438 -0.003726753     17384.31
        8714    0.9903988     2.331627 -0.003528585     17388.56
        8715    0.9903074     2.328458 -0.003100451     17393.36
        8716    0.9897506     2.325385 -0.002693242     17397.83
        8717    0.9895517     2.323036 -0.002312843     17401.22
        8718    0.9897553     2.320854 -0.001817481     17404.98
        8719    0.9900622     2.319206 -0.001402989     17410.32
        8720    0.9905287     2.318115 -0.0009842637     17414.77
        8721    0.9909823     2.317424 -0.0006993468     17417.18
        8722    0.9916003     2.316917 -0.000564362     17418.63
        8723    0.9919594     2.316409 -0.0006062495     17421.26
        8724    0.9922783     2.315858 -0.000609432     17424.75
        8725    0.9928339     2.314999 -0.0006105239     17428.56
        8726    0.9928911     2.314479 -0.0005100359     17431.85
        8727    0.9930061     2.313967 -0.000376456      17437.1
        8728    0.9931963     2.313817 -0.0003799104     17440.54
        8729    0.9934753     2.313494 -0.0003210985     17442.71
        8730    0.9939337      2.31296 -0.000365519      17444.7
        8731     0.994779     2.312682 -0.0003302224     17447.48
        8732    0.9958556     2.312355 -0.0001761809     17450.58
        8733    0.9970209     2.312173 -8.711939e-05      17456.5
        8734    0.9979559     2.312255 3.963708e-05     17461.98
        8735    0.9989304     2.312334  0.000123175     17465.17
        8736    0.9996902     2.312514  0.000175438     17467.22
        8737     1.000345     2.312665 0.0001794794     17470.64
        8738     1.001411     2.312957 8.960552e-05     17475.86
        8739     1.002166     2.313052 0.0001409121     17480.44
        8740     1.002734     2.312872 0.0002422774     17482.89
        8741      1.00355     2.313229 0.0002400942     17484.06
        8742     1.004392     2.313926 0.0004495431     17485.31
        8743      1.00511     2.314012 0.0004827754     17488.58
        8744     1.005439     2.314671 0.0004363776     17490.64
        8745     1.005771      2.31516 0.0005013174     17495.32
        8746     1.005986     2.315671 0.0004062204      17498.6
        8747     1.006208     2.316018 0.0003711336     17499.27
        8748     1.006479     2.316295 0.0004321035     17500.07
        8749     1.007189     2.316645 0.0004361087     17502.92
        8750     1.007806       2.3174 0.0005959576     17506.26
        8751     1.008169     2.317762 0.0005897368     17510.16
        8752     1.008184     2.318679 0.0003992646     17512.27
        8753     1.007795     2.319004 0.0004819804     17515.39
        8754     1.007705     2.318997 0.0003523484     17520.53
        8755     1.008071      2.31969 0.0003205116     17524.43
        8756     1.008194     2.320089 0.0004328404     17526.81
        8757     1.008416     2.320286 0.0003249414     17529.42
        8758     1.008301     2.320728 0.0002142756     17531.72
        8759     1.007687      2.32099 0.0002763255     17533.75
        8760     1.006975     2.320946 0.0003089329     17538.43
        8761     1.006044     2.321391 0.0002720046      17544.2
        8762      1.00454     2.321964 0.0003244595     17548.13
        8763     1.003515     2.322078 0.0002401693     17551.94
        8764     1.002827     2.322244    4.493e-05     17554.84
        8765     1.001993     2.322352 7.107111e-05     17557.74
        8766     1.001174     2.322144 0.0001397674     17561.39
        8767     1.000153     2.322362 2.099257e-05     17563.25
        8768    0.9991748     2.322803 8.498697e-05      17565.7
        8769    0.9987438     2.322436 2.599735e-05     17570.14
        8770    0.9979729     2.322484 -9.183191e-05      17572.3
        8771    0.9968221     2.322466 -4.141366e-05     17575.32
        8772    0.9959358     2.322435 -0.0002279226     17579.03
        8773    0.9948341      2.32227 -0.0003588745      17581.8
        8774    0.9941045     2.321572 -0.0004316446     17585.73
        8775    0.9935133      2.32103 -0.0006044151     17589.02
        8776    0.9931349     2.320709 -0.0007345405     17591.53
        8777    0.9929477     2.319852 -0.0008130127     17592.86
        8778    0.9930399     2.318634 -0.001002159     17594.49
        8779    0.9931763     2.317778 -0.001093434     17595.78
        8780    0.9932358       2.3167 -0.001254684     17598.63
        8781    0.9936243     2.315479 -0.001386786     17602.17
        8782    0.9944647     2.313615  -0.00165147     17606.48
        8783    0.9950476     2.312231 -0.001954682     17608.95
        8784    0.9950235     2.310094 -0.002003061     17610.28
        8785    0.9947993      2.30766 -0.002213072     17612.72
        8786    0.9943305     2.305603 -0.002350011     17615.15
        8787    0.9940651     2.303379 -0.002391394     17617.44
        8788    0.9941194     2.300694 -0.002515346     17618.27
        8789    0.9946797     2.298094 -0.002622507     17619.61
        8790    0.9954488     2.295541 -0.002660675     17622.96
        8791      0.99603     2.292889 -0.002634384     17627.52
        8792    0.9961617     2.290051 -0.002563282     17631.68
        8793    0.9964709     2.287557 -0.002452936     17635.64
        8794    0.9966867     2.285288  -0.00231505      17638.3
        8795    0.9969376     2.283077 -0.002154534     17640.96
        8796    0.9969692     2.280791 -0.002118041      17643.4
        8797    0.9969543     2.278939 -0.001983751     17645.22
        8798    0.9970438     2.276816 -0.001777431     17646.92
        8799    0.9966823     2.275142 -0.001648027     17648.91
        8800    0.9960145     2.273682 -0.001472566     17650.61
        8801    0.9955263     2.272347 -0.001314016     17653.69
        8802    0.9952609     2.270926 -0.001218886     17655.93
        8803     0.995162     2.269886 -0.001116556     17658.59
        8804    0.9953149     2.268806 -0.0009022484     17662.77
        8805    0.9952383      2.26788 -0.0007417464     17665.72
        8806    0.9947804     2.267317 -0.0006474135     17668.99
        8807    0.9943899     2.266919 -0.0006185225     17671.96
        8808    0.9940148     2.266216 -0.000621504     17674.98
        8809    0.9941596     2.265406 -0.000628386     17678.19
        8810    0.9945624     2.264831 -0.0006023334     17680.84
        8811    0.9944915     2.264406 -0.000526575     17683.98
        8812    0.9943427     2.263807 -0.0005205471     17686.69
        8813    0.9941834       2.2633 -0.0005693025     17687.83
        8814    0.9939498     2.262749 -0.0005696776     17690.26
        8815    0.9938867     2.262128 -0.0006589685     17693.88
        8816    0.9941907     2.261528 -0.0006789831     17698.22
        8817     0.994587     2.260664 -0.0007578256     17701.31
        8818    0.9952936     2.260033 -0.0008380115     17703.61
        8819    0.9959411     2.259097 -0.0009216127     17705.88
        8820    0.9960567     2.258176 -0.001113509     17707.86
        8821    0.9959093     2.256978 -0.001132641     17709.47
        8822    0.9961497     2.255579  -0.00123923     17709.58
        8823    0.9964085     2.254566 -0.001287517     17708.86
        8824     0.996611     2.253219 -0.001371885     17707.71
        8825    0.9963397     2.251828 -0.001532145     17707.04
        8826     0.995546     2.250091 -0.001676098     17704.65
        8827    0.9946078     2.248438 -0.001815849      17699.6
        8828    0.9944781     2.246515 -0.001791584     17691.28
        8829    0.9950354     2.244564  -0.00187266     17673.49
        8830    0.9960136     2.242925 -0.001775547     17627.11
        8831    0.9982746     2.240947 -0.001412526     17487.01
        8832     0.999467     2.239413  -0.00178935     17226.87
        8833    0.9954784     2.238914 -0.001414936     17214.62
        8834    0.9980065     2.235767 -0.001293667     17341.08
        8835     0.997905     2.235288 -0.001639574     17244.04
        8836    0.9951678     2.234238 -0.001258777     17468.64
        8837    0.9971514     2.232356 -0.001448247     17703.77
        8838     0.998043     2.230732 -0.001438576     17759.29
        8839    0.9985552     2.229495 -0.001173423     17773.72
        8840    0.9989325     2.228484 -0.001119652     17779.24
        8841    0.9992313     2.227662 -0.001078244     17782.54
        8842    0.9996429     2.226254 -0.001105695     17786.02
        8843    0.9997411     2.225182 -0.001171304     17788.67
        8844    0.9997535     2.224061 -0.001090965     17791.95
        8845    0.9998859     2.222977 -0.001067996     17793.61
        8846     1.000068      2.22189 -0.001048106     17795.47
        8847     1.000395      2.22091 -0.001045507     17798.11
        8848     1.000738     2.219869 -0.0009972091     17802.36
        8849      1.00095     2.218795 -0.001088221     17806.27
        8850     1.001204     2.217901 -0.001089178     17809.64
        8851     1.001288     2.216557 -0.001038753     17811.94
        8852       1.0015     2.215512 -0.000964984     17814.24
        8853     1.001868      2.21464 -0.000917403     17816.43
        8854     1.001955     2.214041 -0.0008763214     17818.74
        8855     1.001897     2.212887 -0.0008593586     17821.37
        8856     1.001694     2.212007 -0.0009356608     17823.67
        8857     1.001241     2.211202 -0.0007104574     17826.01
        8858     1.000774     2.210298 -0.000629164     17827.33
        8859     1.000473     2.210045 -0.0005555897     17829.89
        8860     1.000331      2.20949 -0.000283014     17834.68
        8861     1.000271      2.20898 -0.0003373965     17840.96
        8862    0.9999663     2.209166 -0.0003528794     17846.19
        8863     1.000076     2.208696 -0.0002759556      17850.2
        8864     1.000016     2.208078 -0.0003482455      17852.6
        8865    0.9989988     2.207876 -0.0002583688     17853.55
        8866    0.9979567     2.207773 -4.477143e-05     17855.62
        8867    0.9969189     2.207662 -8.630906e-07     17856.64
        8868    0.9964435     2.207899 -5.541937e-05     17859.51
        8869    0.9962059     2.207873 6.256746e-05     17861.44
        8870     0.996198     2.207552 1.490194e-05     17864.67
        8871    0.9962183     2.207912 -1.169038e-05     17867.63
        8872    0.9960208     2.207959 9.729599e-05     17870.92
        8873    0.9959308     2.207826 6.960942e-05     17875.37
        8874    0.9960543     2.207941 3.731117e-05     17879.29
        8875    0.9961449     2.208191  0.000209334      17881.5
        8876    0.9958213     2.208108 0.0002169984     17883.72
        8877    0.9954472     2.208663 0.0001661812     17885.74
        8878    0.9955711     2.208809 0.0002811518     17887.27
        8879    0.9956944     2.208856 0.0001578041     17889.68
        8880    0.9956848     2.209233 0.0002339605        17894
        8881    0.9957189     2.209294 0.0002409481     17897.79
        8882    0.9957216     2.209745 0.0003470015     17900.32
        8883    0.9959117     2.209819 0.0003645944     17902.03
        8884    0.9959922     2.210621 0.0003033986     17903.39
        8885    0.9959173     2.210753 0.0003643143     17905.71
        8886      0.99569     2.210958 0.0001652365      17909.5
        8887    0.9953799     2.211277 0.0001389309     17913.47
        8888    0.9952614     2.211282 4.348152e-05     17916.18
        8889    0.9953994     2.211309 4.869742e-05     17919.59
        8890    0.9956948     2.211132 -3.974457e-05     17922.89
        8891    0.9958486     2.211471 -9.290396e-05     17925.63
        8892    0.9959156     2.211123 -0.0001193523     17927.75
        8893    0.9959344     2.210937 -0.000386659     17929.44
        8894    0.9958915     2.210655 -0.0003917386     17931.83
        8895    0.9957619     2.209925 -0.0005431391     17934.95
        8896    0.9957183     2.209556 -0.000621379     17938.56
        8897    0.9956303     2.208764 -0.0006765333      17941.1
        8898    0.9952788     2.208169 -0.0009424681     17944.31
        8899    0.9949843     2.207219  -0.00105083     17947.49
        8900    0.9948145     2.205786 -0.001282184      17949.3
        8901    0.9949569     2.204561 -0.001440761     17951.58
        8902    0.9953217      2.20304 -0.001383603     17955.33
        8903    0.9955043     2.201456 -0.001535361     17957.77
        8904     0.995559     2.200252 -0.001596978     17960.62
        8905    0.9957657      2.19842 -0.001591617     17962.61
        8906    0.9958215     2.196653 -0.001724034     17963.83
        8907    0.9953829     2.195089  -0.00176987     17966.15
        8908     0.995171     2.193355 -0.001735706     17969.84
        8909    0.9951469      2.19134 -0.001814751     17972.51
        8910    0.9950002      2.18971 -0.001767982     17975.87
        8911    0.9949174      2.18783 -0.001645768     17979.76
        8912    0.9948203     2.186283 -0.001685502     17983.34
        8913    0.9947087     2.184757 -0.001590565     17985.63
        8914    0.9947933     2.182968 -0.001525703     17987.55
        8915    0.9949865     2.181468 -0.001546715     17989.67
        8916    0.9951468     2.180181 -0.001444665     17992.21
        8917    0.9953503      2.17857 -0.001397367     17993.65
        8918    0.9953476     2.177189 -0.001419085      17996.3
        8919    0.9954446     2.175878 -0.001347705     17999.51
        8920    0.9955131     2.174504 -0.001258079     18002.52
        8921    0.9955769     2.173179 -0.001214678     18005.68
        8922    0.9955903     2.172157 -0.001094399     18007.89
        8923    0.9957462      2.17102 -0.0009533061     18011.42
        8924     0.995937     2.170127 -0.001034714     18013.94
        8925    0.9960565     2.169366 -0.001055071     18016.83
        8926     0.996151     2.168018 -0.001035514     18020.35
        8927    0.9963781     2.166799 -0.001093986     18022.58
        8928    0.9967456     2.165985 -0.0009927239     18023.32
        8929    0.9969818      2.16499 -0.0009105775      18024.3
        8930    0.9974706     2.164047 -0.0009474575     18028.04
        8931    0.9980414     2.163157 -0.0009801075      18032.1
        8932    0.9986096     2.162195 -0.0009326324     18034.55
        8933    0.9991435      2.16107 -0.000823015     18037.24
        8934    0.9994581     2.160316 -0.0007739524     18039.68
        8935    0.9994196     2.159865 -0.0006946505     18041.79
        8936    0.9997934     2.159099 -0.000707228     18038.79
        8937     1.000521     2.158291 -0.0007353965     18015.05
        8938     1.000736     2.157488 -0.0007245345     17964.05
        8939    0.9999627     2.156923 -0.0007358585     17943.79
        8940    0.9994925     2.156201 -0.0007423681     17965.97
        8941    0.9993659     2.155348 -0.000861712     18019.04
        8942    0.9997781     2.154518 -0.0008774175     18043.78
        8943    0.9998244     2.153477 -0.0008782805     18051.13
        8944    0.9998296     2.152691 -0.000859374     18057.63
        8945     1.000154     2.151835 -0.0008301239     18063.35
        8946     1.000576     2.151081 -0.000775882     18068.62
        8947      1.00093     2.150156 -0.0007664075     18071.24
        8948     1.001301     2.149588 -0.0007806095     18074.32
        8949     1.001547     2.148769 -0.0007717351      18077.1
        8950     1.001427     2.147958 -0.000870831     18079.32
        8951     1.001381     2.147069 -0.0008881716     18080.96
        8952     1.001603     2.146104 -0.000947367     18083.11
        8953      1.00203     2.145216 -0.0009556499     18085.98
        8954      1.00246     2.144169 -0.0008881835     18089.43
        8955      1.00231     2.143247  -0.00087923     18092.43
        8956     1.002009     2.142552 -0.0008544695     18093.49
        8957     1.001733     2.141699 -0.0008626325     18094.42
        8958     1.001654     2.140751 -0.0008693245     18097.07
        8959     1.001693     2.139796 -0.0008569385     18099.24
        8960     1.001808     2.139074 -0.000889111     18101.54
        8961     1.001871     2.138272 -0.0009476845     18103.88
        8962     1.001926     2.137194 -0.000994063     18107.13
        8963       1.0017     2.136005 -0.001005536     18109.51
        8964     1.001478     2.135098 -0.001005843     18112.35
        8965     1.001029      2.13425 -0.0009111245     18116.39
        8966     1.000676     2.133171 -0.0009494346     18119.97
        8967     1.000523     2.132361 -0.001066715     18121.94
        8968     1.000496       2.1313 -0.001049834      18123.5
        8969       1.0006     2.129983 -0.001068349     18124.72
        8970     1.000619     2.128972 -0.0009539299     18126.02
        8971     1.000606     2.128087 -0.000886451     18129.69
        8972     1.000574     2.127485 -0.000890824     18135.49
        8973     1.000502     2.126437 -0.0008632366     18139.24
        8974     1.000249     2.125408 -0.0009125874     18140.46
        8975    0.9999574     2.124635 -0.0008534605     18142.47
        8976    0.9998835     2.123834  -0.00082031     18143.43
        8977    0.9999888     2.123023 -0.0008234614     18145.57
        8978     1.000205     2.122127 -0.0007421795     18146.61
        8979      1.00042     2.121341 -0.000764402     18148.37
        8980     1.000553     2.120866 -0.000728248     18149.91
        8981     1.000584     2.119965 -0.0007010326     18151.93
        8982     1.000654     2.119214 -0.0007410275     18152.37
        8983     1.000721     2.118537 -0.0006986615     18154.12
        8984     1.000449     2.117901 -0.000699037     18156.51
        8985      1.00043     2.117171 -0.0007122731     18158.44
        8986     1.000322     2.116418 -0.0007667264     18160.78
        8987     1.000114     2.115687 -0.000682755     18162.68
        8988    0.9999176     2.114835    -0.000648     18164.62
        8989     1.000085      2.11444 -0.0006141634     18166.56
        8990     1.000348     2.113826 -0.0005217935      18169.2
        8991     1.000296     2.113231 -0.000527157     18169.72
        8992     1.000251     2.112747 -0.000514938      18170.3
        8993     1.000257     2.112331 -0.0005279929     18172.32
        8994     1.000255     2.111766 -0.0004786076     18174.72
        8995     1.000371     2.111119 -0.0005565385     18177.83
        8996     1.000522     2.110833 -0.0005451074     18180.21
        8997     1.000628     2.110105 -0.0004887586     18182.94
        8998     1.000512     2.109586 -0.0005379845     18184.61
        8999     1.000034     2.109164 -0.0005107836     18186.24
        9000    0.9996876     2.108681 -0.0005764235     18188.56
        9001    0.9994369     2.108062 -0.0005793315     18191.02
        9002     0.999456      2.10728 -0.0005459935     18193.79
        9003    0.9993477     2.106846 -0.0005243275     18196.94
        9004    0.9991526     2.106497 -0.0004716565     18200.63
        9005    0.9991662     2.105965 -0.0004491276     18203.94
        9006    0.9992072     2.105393 -0.0005153344      18205.8
        9007    0.9991294      2.10505 -0.0004366249     18207.53
        9008     0.999278     2.104436 -0.0003831221     18210.62
        9009    0.9992854     2.104218 -0.000459695     18212.84
        9010    0.9990492     2.103861 -0.0004456985     18213.71
        9011    0.9988791     2.103211 -0.000481147     18215.45
        9012    0.9990399     2.102653 -0.000501818     18217.22
        9013    0.9992986     2.102293 -0.0004708739     18218.52
        9014    0.9995924     2.101854 -0.0003755505      18221.1
        9015     1.000167     2.101328 -0.0004210515     18224.09
        9016     1.000435     2.101151 -0.000415792     18226.77
        9017     1.000064     2.100609 -0.0004308382     18228.86
        9018    0.9992104     2.100191 -0.0005663875     18231.01
        9019    0.9983333     2.099604 -0.0005172009     18234.29
        9020    0.9977832     2.098885 -0.000449449     18238.03
        9021    0.9973857      2.09854 -0.000484698     18240.29
        9022    0.9973172     2.098393 -0.0004805776     18243.12
        9023      0.99734     2.097666 -0.0005572176     18245.75
        9024    0.9976001     2.096963 -0.000652924     18248.67
        9025    0.9977931     2.096312 -0.0006654025     18249.99
        9026    0.9978332     2.095781 -0.000632328     18251.62
        9027    0.9978619     2.095004 -0.0006522316     18255.13
        9028    0.9977834     2.094434 -0.0007054595     18258.33
        9029    0.9979235     2.093703 -0.0006805785     18261.19
        9030    0.9981558     2.092959 -0.0006906961     18263.77
        9031    0.9983151     2.092282 -0.0007454165     18265.52
        9032    0.9987069     2.091671 -0.0007306825     18267.25
        9033     0.998918     2.090721 -0.0007078231     18268.01
        9034     0.998958     2.090037 -0.0007591489     18269.87
        9035     0.998923      2.08945 -0.0007033945     18273.43
        9036    0.9988662     2.088634 -0.0007152856     18276.83
        9037    0.9988525     2.087907 -0.0008280225     18279.24
        9038    0.9987834     2.087175 -0.0007912935      18280.7
        9039    0.9989529     2.086138 -0.0008088605     18280.59
        9040    0.9993332     2.085469 -0.0007867505     18282.08
        9041    0.9994173     2.084672 -0.0007594535     18283.76
        9042    0.9994888     2.084028 -0.000757604     18285.68
        9043    0.9994561       2.0831 -0.000740277     18287.63
        9044    0.9990927     2.082439 -0.0007863831     18291.13
        9045    0.9987494     2.081711 -0.000863547     18294.58
        9046     0.998476     2.080883 -0.000861001     18297.49
        9047    0.9983755     2.079646 -0.000893674     18299.36
        9048    0.9985827     2.078995 -0.0009046034     18302.55
        9049    0.9989112     2.078136 -0.000825072      18303.9
        9050    0.9988692     2.077264 -0.0008469876     18303.26
        9051    0.9989346     2.076346 -0.000895168     18304.83
        9052    0.9990533     2.075607 -0.0008841985     18308.19
        9053    0.9997277     2.074555 -0.000868976     18311.91
        9054     1.000108     2.073728 -0.000858229     18315.03
        9055     1.000162      2.07287 -0.000907967     18317.15
        9056     1.000073     2.072174 -0.0008999969     18317.46
        9057     1.000237     2.070924 -0.0007998216     18319.26
        9058     1.000337     2.070128 -0.000903653      18319.9
        9059     1.000398     2.069671 -0.000857425     18321.08
        9060     1.000596     2.068559 -0.0008634826      18322.8
        9061     1.000908     2.067494 -0.0009187295     18323.88
        9062      1.00107     2.066674 -0.0008779365        18324
        9063     1.001368     2.065996 -0.000832738     18326.55
        9064     1.001644     2.065047 -0.0008445401     18328.22
        9065      1.00144     2.064163 -0.0009177404     18329.52
        9066     1.000946     2.063296 -0.000843403     18331.94
        9067      1.00068     2.062325 -0.000820258     18334.28
        9068     1.000656     2.061674 -0.0007994175     18336.39
        9069     1.000691     2.060882 -0.0007882795     18338.72
        9070     1.000619     2.060098 -0.000771713     18341.54
        9071     1.000521     2.059172 -0.0007944395      18343.8
        9072     1.000518     2.058587 -0.0008104284     18346.64
        9073     1.000684     2.057704 -0.0007606261     18349.23
        9074     1.000842     2.056856 -0.0008616505     18350.66
        9075     1.001137     2.056129 -0.0008049975     18352.71
        9076      1.00152      2.05514 -0.000767352     18354.94
        9077     1.001792     2.054484 -0.000799792     18356.64
        9078     1.001783     2.053787 -0.0008094646     18358.66
        9079     1.001576      2.05293 -0.0008865285     18359.96
        9080     1.001606     2.051902 -0.0008851204     18361.13
        9081     1.001583     2.050938 -0.0008244715      18362.4
        9082     1.001393     2.050246 -0.0008040494     18362.07
        9083      1.00136     2.049632 -0.000693271     18361.26
        9084     1.001468     2.048686 -0.0007021392     18358.27
        9085      1.00161     2.048165  -0.00083689     18344.04
        9086     1.001635     2.047438 -0.000814491     18319.33
        9087     1.001291     2.046285 -0.0008754026     18300.55
        9088     1.000982     2.045428 -0.0009245628     18293.05
        9089     1.000981     2.044663 -0.000766892     18285.77
        9090     1.001286     2.043739 -0.0007991166      18261.4
        9091     1.001364     2.043217 -0.0008840918     18210.12
        9092     1.001688     2.042232 -0.000674672     18164.62
        9093       1.0026     2.041127 -0.0007222156     18076.38
        9094     1.000574     2.041041 -0.0008136089     18061.82
        9095     1.000485     2.040328 -0.0006898175     18215.39
        9096     1.002438     2.038977 -0.0006961115     18237.69
        9097      1.00314     2.038368 -0.0006980925     18115.63
        9098      1.00175     2.038256 -0.0006758875     18103.16
        9099     1.001648     2.037536 -0.0007007836     18208.13
        9100      1.00256     2.036274 -0.0008433911     18288.04
        9101     1.002908     2.035565 -0.0009087074      18308.3
        9102     1.002703     2.034883 -0.0007986715      18329.2
        9103     1.002398     2.033901 -0.0007919181     18349.39
        9104     1.002024     2.033079 -0.0008455039     18360.72
        9105     1.001542     2.032397 -0.0007413445     18367.86
        9106     1.000935     2.031501 -0.000769212     18377.71
        9107     1.000497     2.030936 -0.0007656485     18395.28
        9108      1.00001     2.030002 -0.0007486636      18412.3
        9109    0.9997709     2.029334 -0.0008366279     18422.13
        9110    0.9998097     2.028506 -0.000727376     18428.04
        9111    0.9999489     2.027589 -0.0007690325     18433.21
        9112    0.9998401     2.027093 -0.0007733125     18436.31
        9113    0.9996803     2.026258 -0.0007565946     18438.24
        9114    0.9996587     2.025413 -0.000829963      18441.6
        9115    0.9998369     2.024563 -0.000855496     18445.65
        9116    0.9997409     2.023773 -0.0008402395      18449.3
        9117    0.9997199     2.022836 -0.0008094125     18452.76
        9118    0.9997884     2.022052 -0.000778857     18455.41
        9119    0.9998851     2.021325 -0.0007481074     18457.65
        9120     1.000118     2.020657 -0.0007113006     18458.34
        9121     1.000419     2.019844 -0.000823133     18459.48
        9122     1.000496     2.019207 -0.0007761439      18460.2
        9123     1.000668     2.018033 -0.0006734181     18460.75
        9124      1.00046     2.017553 -0.0007231344     18463.04
        9125     1.000168      2.01715 -0.0006192635     18466.46
        9126     1.000007     2.016314 -0.0006893566     18469.77
        9127    0.9998371     2.015555 -0.0007668054     18472.25
        9128    0.9997098     2.014795 -0.0006915895     18474.83
        9129    0.9996735     2.014083 -0.0007012715     18477.28
        9130    0.9997131     2.013548 -0.0006741849     18478.84
        9131    0.9999265      2.01275 -0.0005757766     18480.26
        9132     1.000171     2.012099 -0.0006394045     18481.12
        9133     1.000588      2.01178 -0.0006215069     18483.04
        9134     1.000866      2.01099 -0.0005548611     18485.26
        9135     1.000656     2.010264 -0.0006497435     18488.05
        9136      1.00037     2.009879 -0.0006090904     18488.48
        9137     1.000416     2.009181 -0.0005074705      18488.7
        9138     1.000752     2.008554 -0.0005386434     18489.97
        9139     1.001263     2.008234 -0.0004764885     18490.45
        9140     1.002021     2.007725 -0.0004630695     18491.07
        9141     1.002072     2.007275 -0.0004970765     18493.55
        9142     1.001939     2.006702 -0.000534576     18496.87
        9143     1.001881     2.006246 -0.0005441465     18500.37
        9144     1.001782     2.005586 -0.0005217605     18502.93
        9145      1.00124     2.005098 -0.0005477705      18504.1
        9146     1.001127     2.004614 -0.000563071     18506.47
        9147     1.001206     2.004055 -0.0005653805     18509.11
        9148     1.001247     2.003334 -0.0005474015     18509.56
        9149     1.001358     2.002837 -0.000512996     18510.69
        9150     1.001444     2.002425 -0.0004718945     18511.86
        9151     1.001185     2.002003 -0.0004716426     18512.85
        9152     1.000781     2.001447  -0.00053702     18513.11
        9153      1.00052      2.00095 -0.000549631     18514.89
        9154     1.000304     2.000277 -0.0005521645     18516.99
        9155     1.000202     1.999805 -0.000539174     18518.96
        9156     1.000114     1.999238 -0.0005584546     18520.61
        9157    0.9998706     1.998793 -0.000628236     18521.55
        9158            1     1.998043 -0.0006531555     18523.51
        9159     1.000294     1.997292 -0.0006253569     18525.84
        9160     1.000689     1.996625 -0.000552201     18528.58
        9161      1.00092     1.996292 -0.0005229175     18531.03
        9162     1.001247     1.995834 -0.000515426     18533.66
        9163     1.001703       1.9952 -0.0005691041     18535.79
        9164     1.002085     1.994564 -0.0006620345     18538.94
        9165     1.002052     1.994016 -0.0006818015     18541.19
        9166     1.001956     1.993186  -0.00066837     18542.72
        9167     1.002114     1.992473 -0.0006761995     18544.66
        9168     1.002098      1.99189 -0.0006731085     18547.08
        9169     1.002105     1.991311 -0.0006453351     18550.41
        9170     1.002072     1.990494 -0.000705948     18553.29
        9171     1.002075     1.989891 -0.0007088815     18555.07
        9172     1.002103     1.989066 -0.0006840141     18556.04
        9173      1.00196     1.988475 -0.0007165639     18556.05
        9174     1.001945     1.987758 -0.000608716     18556.84
        9175     1.001887     1.987025 -0.0006526931     18556.59
        9176     1.001853     1.986631 -0.0007204085     18557.05
        9177     1.001861     1.985865 -0.0007179006     18558.14
        9178     1.001771     1.984876 -0.000761932      18558.5
        9179     1.001735     1.984154 -0.0007295634     18559.31
        9180     1.001964     1.983584 -0.000664529     18560.68
        9181     1.001964     1.982946 -0.000674409     18561.96
        9182     1.001783     1.982218 -0.000665151     18563.24
        9183     1.001347     1.981456 -0.0006822914     18563.62
        9184     1.001102     1.980923 -0.000604885     18564.47
        9185     1.001178     1.980217 -0.0006290055     18566.48
        9186     1.001188     1.979798 -0.000667533     18566.95
        9187     1.001326      1.97894 -0.0006581336      18569.2
        9188     1.001153     1.978253 -0.0007019009     18571.14
        9189     1.000909     1.977585 -0.000641594     18570.98
        9190      1.00084     1.976991 -0.0006248245     18572.34
        9191     1.000907     1.976374 -0.0005954875      18574.4
        9192     1.000889     1.975754 -0.000602692     18576.08
        9193     1.000768     1.975203 -0.0005672245     18578.18
        9194     1.000858      1.97458 -0.0005706001     18580.16
        9195     1.000999     1.974105 -0.000636529     18580.94
        9196     1.001123     1.973471 -0.0006512256     18581.49
        9197     1.001226     1.972657 -0.0007258634     18582.14
        9198     1.001155     1.971975 -0.0006423764     18582.15
        9199     1.001304     1.971201 -0.0005944841     18584.52
        9200     1.001232     1.970902 -0.0006176439     18586.64
        9201     1.001206     1.970279 -0.0005553627     18587.83
        9202     1.001347     1.969504 -0.0007080985     18589.21
        9203      1.00138      1.96898 -0.0006924984     18589.74
        9204     1.001644     1.968069 -0.0006470311     18591.68
        9205     1.001863     1.967509 -0.0006771074     18592.59
        9206     1.002078     1.966916 -0.0005748735     18594.45
        9207     1.002569     1.966271 -0.0006285286     18595.81
        9208     1.002906      1.96577 -0.0006974235     18597.13
        9209     1.002865     1.964994 -0.0006930405     18599.23
        9210     1.002893     1.964127 -0.000712468      18602.3
        9211     1.002967     1.963499 -0.0007025465     18604.65
        9212     1.003139      1.96292 -0.0006821185     18607.53
        9213     1.003299     1.962184 -0.0006704931     18608.56
        9214     1.003531     1.961398 -0.0007878984     18608.96
        9215     1.003674     1.960817 -0.000723357     18610.44
        9216      1.00374     1.959768 -0.0007270851     18612.88
        9217     1.003882     1.959291 -0.0007624459     18613.97
        9218     1.003996      1.95849 -0.0006963635     18615.58
        9219      1.00381     1.957767 -0.0007407945     18616.11
        9220     1.003355     1.956983 -0.0007358914     18616.02
        9221     1.003342     1.956328 -0.000692418     18617.49
        9222     1.003235     1.955546 -0.0007385845     18619.96
        9223     1.002788     1.954998 -0.0007308855     18621.95
        9224      1.00229     1.954029 -0.000713909     18623.17
        9225     1.001741     1.953404 -0.0007309499     18623.94
        9226     1.001579     1.952691 -0.0006675906     18625.88
        9227     1.001633     1.952074 -0.0007438435     18628.73
        9228     1.001638     1.951358 -0.000743742     18630.77
        9229     1.001383     1.950429 -0.0007617211      18632.4
        9230     1.000929     1.949716 -0.0008092684     18632.99
        9231     1.000835     1.949027 -0.0007088435     18633.75
        9232     1.000927     1.948121 -0.0007494466     18634.12
        9233      1.00105     1.947593 -0.0007888324     18634.05
        9234      1.00141     1.946718 -0.000710518     18634.21
        9235     1.001386     1.945872 -0.000730213     18635.07
        9236      1.00117     1.945279 -0.0006851889     18635.85
        9237     1.001016     1.944673 -0.000627911     18636.96
        9238     1.000794     1.943977 -0.0006945341     18638.01
        9239     1.000552      1.94336 -0.0007813614      18639.3
        9240     1.000509     1.942501  -0.00069988      18641.3
        9241     1.000465     1.941547 -0.0006849236     18643.33
        9242     1.000141     1.941178 -0.0007177249     18643.43
        9243     1.000049      1.94062 -0.0006571411     18643.96
        9244     1.000145      1.93963 -0.0007491566     18643.56
        9245     1.000321     1.938919 -0.0007524398     18641.27
        9246     1.000631     1.938181 -0.0005852996     18640.54
        9247     1.000708     1.937611 -0.0006622146     18637.48
        9248     1.000746     1.937289 -0.0006996184     18626.79
        9249     1.001163      1.93627 -0.0006289796     18585.89
        9250     1.001743     1.935382 -0.0007187385     18474.41
        9251     1.000072     1.935095 -0.000711676     18406.67
        9252     0.999645     1.934414 -0.0007088225      18519.1
        9253     1.000625     1.933423 -0.0006954095     18583.47
        9254     1.001585     1.932547 -0.0006850204     18514.52
        9255     1.000929     1.932313 -0.000601545     18425.75
        9256     1.000505     1.931674 -0.0005945361     18516.84
        9257     1.000711     1.931017 -0.0007084255     18617.53
        9258     1.000818     1.930169 -0.0006991295     18663.08
        9259     1.000729     1.929479 -0.0006929365     18672.98
        9260      1.00054     1.928877 -0.0006645509      18676.8
        9261     1.000462     1.928245 -0.0006267955     18679.61
        9262     1.000406     1.927511 -0.0006856196     18682.26
        9263     1.000431     1.926972 -0.0007407039     18684.59
        9264      1.00037     1.926135 -0.0006810541     18685.46
        9265     1.000244     1.925282 -0.0007832754     18686.77
        9266     1.000003     1.924787 -0.0006834589     18686.21
        9267    0.9997475     1.923839 -0.0006333876     18685.52
        9268    0.9992928     1.923401 -0.0006622394     18686.27
        9269    0.9988861     1.922749 -0.0005536761     18687.96
        9270    0.9988195     1.922138 -0.0006607305     18688.65
        9271    0.9990197     1.921624 -0.000621856     18689.74
        9272    0.9992821     1.920758 -0.000651551     18692.43
        9273    0.9996042     1.920261 -0.0006678299     18694.87
        9274    0.9998301     1.919531 -0.0005929806     18696.11
        9275     1.000238     1.918953 -0.0006409505     18696.43
        9276     1.000251     1.918386 -0.000635562      18696.4
        9277      1.00009     1.917697 -0.000639337     18697.39
        9278     1.000096     1.916989 -0.000635281     18699.88
        9279     1.000259     1.916396 -0.000609535     18701.32
        9280     1.000427     1.915845 -0.000645183      18702.3
        9281     1.000591     1.915259 -0.0006487415     18703.76
        9282      1.00057     1.914408 -0.000657113     18704.84
        9283     1.000712     1.913801 -0.0006718039     18705.11
        9284     1.000804     1.913217 -0.0005710615     18706.04
        9285     1.000715     1.912572 -0.0005579495     18708.17
        9286     1.000479     1.912124 -0.0005959695     18709.73
        9287     1.000333     1.911569 -0.0006050915     18711.35
        9288    0.9998631     1.910833 -0.0005992825     18712.28
        9289    0.9995001     1.910152 -0.000592007     18713.05
        9290    0.9991725     1.909727 -0.000592459     18713.26
        9291    0.9989455     1.909201 -0.0005470805     18713.04
        9292    0.9988886     1.908463 -0.0005359121     18714.43
        9293    0.9989503     1.907963 -0.0006025854     18715.68
        9294    0.9991824     1.907583 -0.0005224765     18717.24
        9295    0.9994346     1.906791 -0.0005851831     18719.06
        9296    0.9994685     1.906373 -0.0006287129     18720.22
        9297     0.999302     1.905623 -0.0005652966     18720.32
        9298    0.9992345     1.905069 -0.000610621     18722.04
        9299    0.9992608     1.904529 -0.000578619     18724.19
        9300    0.9993989      1.90393 -0.0006032625     18725.96
        9301     0.999482     1.903308 -0.000567579     18728.22
        9302    0.9991808     1.902656 -0.0005520145     18728.67
        9303    0.9990867     1.902259 -0.000579483     18728.45
        9304    0.9993162     1.901722 -0.0005505695     18728.42
        9305    0.9994487      1.90099 -0.000581828     18728.14
        9306    0.9996839     1.900453 -0.0005582305     18728.47
        9307     1.000008     1.899932 -0.000509432     18730.06
        9308     1.000349      1.89949 -0.0005097165     18731.51
        9309     1.000353     1.898953 -0.000551547     18732.43
        9310     1.000401     1.898414 -0.000559743     18733.19
        9311     1.000658     1.897726 -0.000564976     18733.09
        9312     1.000977     1.897251 -0.000597418     18733.05
        9313     1.001445     1.896693 -0.0005817345     18735.18
        9314     1.001544     1.896025 -0.0005881111     18736.35
        9315       1.0014     1.895399 -0.0006327045     18737.18
        9316      1.00128     1.894898 -0.000612614     18738.56
        9317     1.001255     1.894162 -0.000594917     18741.03
        9318     1.001229     1.893574 -0.000591404      18742.8
        9319     1.001259     1.893019  -0.00055951     18744.53
        9320     1.001324     1.892532 -0.0005267295     18743.98
        9321     1.001261     1.891924 -0.0005496956     18742.28
        9322     1.001144     1.891467 -0.000608996     18741.95
        9323     1.000914      1.89082 -0.0005859905     18742.36
        9324      1.00075     1.890096 -0.000590263     18743.01
        9325     1.000857      1.88958 -0.0005828335     18744.64
        9326     1.001187     1.889106 -0.000560195     18746.42
        9327     1.001635     1.888489 -0.0006097531     18748.82
        9328     1.001958     1.887856 -0.0006505419     18750.87
        9329     1.001881     1.887141 -0.000591558     18750.62
        9330     1.002157     1.886504 -0.000606379     18752.59
        9331     1.002678     1.886123 -0.0005866345     18753.94
        9332     1.003111      1.88543 -0.0005759181     18752.59
        9333     1.003653     1.884794 -0.0006215305     18751.97
        9334     1.004064       1.8842 -0.0005609359     18752.43
        9335     1.004325     1.883636 -0.0005286156     18754.95
        9336     1.004117     1.883186 -0.0006067989     18758.48
        9337     1.003887      1.88268 -0.0005699616     18760.92
        9338     1.003834     1.881773 -0.0006609261     18762.55
        9339     1.003455     1.881357 -0.0006931964     18762.05
        9340     1.003353     1.880543 -0.0005781905     18760.98
        9341     1.003378     1.879907 -0.000604308     18760.74
        9342     1.003338      1.87946 -0.000607288     18760.95
        9343      1.00346     1.878939 -0.000577073     18761.89
        9344      1.00368     1.878114 -0.0006130341     18763.28
        9345     1.003609     1.877599 -0.0006585789     18763.47
        9346     1.003321     1.877008 -0.0005448731     18763.73
        9347     1.002803     1.876305 -0.000632982     18765.57
        9348       1.0023     1.875934 -0.000638869     18766.75
        9349     1.002067     1.875067 -0.0006239165     18764.98
        9350     1.002011     1.874453 -0.000634027     18761.22
        9351     1.001837     1.873809 -0.0006238285     18758.46
        9352     1.001711     1.873398 -0.000614135     18761.01
        9353     1.001617     1.872571 -0.0006141145     18763.37
        9354     1.001505     1.871996 -0.0006364499     18765.01
        9355     1.001348     1.871353 -0.000575082     18766.48
        9356     1.001341     1.870852  -0.00059481     18769.75
        9357     1.001477     1.870271 -0.0006075035      18774.4
        9358     1.001724     1.869617 -0.000613819     18777.16
        9359     1.001676     1.868923 -0.0006071691     18776.58
        9360     1.001569     1.868397 -0.0006533584     18775.37
        9361     1.001509     1.867842 -0.0006068315     18772.62
        9362     1.001916     1.867004 -0.000641604     18770.18
        9363     1.002311     1.866496 -0.0006172529     18770.46
        9364     1.002775      1.86583 -0.0005605236     18772.43
        9365     1.002901     1.865373 -0.0006140225      18772.9
        9366     1.002969     1.864762 -0.0005909735     18774.78
        9367     1.002665      1.86404 -0.0005792765      18777.8
        9368     1.002123     1.863467 -0.0005758096     18782.66
        9369     1.001564     1.863056 -0.0006173184     18784.46
        9370     1.001351     1.862458 -0.0005810316     18785.26
        9371     1.001118      1.86157 -0.0006425181     18787.15
        9372     1.000565     1.861142 -0.0006737509     18788.45
        9373     1.000545     1.860486 -0.000614302     18789.37
        9374     1.000553     1.859763 -0.000644606     18788.08
        9375     1.000653     1.859113 -0.0006030299     18787.19
        9376     1.001011     1.858564 -0.0005386895     18787.32
        9377      1.00121     1.858074 -0.000564331     18788.18
        9378     1.001432     1.857609 -0.000566467     18789.86
        9379     1.001622     1.856856 -0.0006060826     18791.47
        9380     1.001665     1.856298 -0.0006751764     18792.39
        9381     1.001558      1.85565 -0.000589451     18791.93
        9382     1.001475     1.854908 -0.000608233      18793.3
        9383     1.001478     1.854498 -0.0006150774      18794.6
        9384     1.001481     1.853865 -0.0005355661      18795.5
        9385      1.00149      1.85319 -0.000585602     18797.33
        9386     1.001138     1.852766 -0.0005813945        18798
        9387     1.000822     1.852156 -0.0006148795     18798.68
        9388     1.000909      1.85154 -0.0006284815     18799.24
        9389      1.00119      1.85073 -0.0006380431     18799.47
        9390     1.001294     1.850252 -0.0006685034     18799.06
        9391     1.001024     1.849603 -0.0005832765     18798.33
        9392     1.000585     1.848866 -0.000609915     18796.45
        9393     1.000052     1.848397 -0.0006406414     18796.15
        9394     1.000089     1.847812 -0.0005916875     18796.81
        9395      1.00034     1.847041 -0.0006210485     18797.85
        9396     1.000229     1.846499 -0.0006359879     18799.24
        9397      0.99993     1.845913 -0.0005378365     18799.02
        9398    0.9999207     1.845268 -0.000563207     18800.07
        9399    0.9999404     1.844889 -0.0006025985     18802.09
        9400    0.9998081     1.844246 -0.0005977091     18801.99
        9401    0.9997674     1.843502 -0.000700361     18801.41
        9402    0.9995871     1.842877 -0.0006661229     18801.45
        9403     0.999461     1.842088 -0.000596909     18803.22
        9404    0.9993467     1.841582 -0.0005831855     18804.56
        9405    0.9995121     1.841115 -0.0005447435     18805.68
        9406    0.9996865     1.840544 -0.0005700121     18806.82
        9407    0.9998695     1.839909  -0.00065435     18807.36
        9408     1.000137     1.839302 -0.0006577165     18807.33
        9409      1.00022     1.838497 -0.0006880475     18807.21
        9410     1.000062     1.837914 -0.0006875304     18808.07
        9411    0.9998634     1.837157 -0.0006218215     18809.01
        9412    0.9997386     1.836551 -0.0005989969     18810.35
        9413    0.9994579      1.83601 -0.0004951705     18811.17
        9414    0.9992875     1.835518 -0.0005426295     18812.39
        9415    0.9989061     1.835176 -0.000568659      18812.9
        9416    0.9987203     1.834381 -0.0005767691     18813.16
        9417    0.9986958     1.833735 -0.000698697     18812.46
        9418    0.9987862     1.833211 -0.000658849     18810.15
        9419    0.9990307     1.832381 -0.0006412855     18810.33
        9420    0.9993662     1.831746 -0.0006505229     18810.22
        9421    0.9994176      1.83117 -0.000574351      18808.4
        9422    0.9996286     1.830608  -0.00059036      18808.3
        9423     0.999662     1.830084 -0.0006078626     18806.96
        9424      0.99976     1.829384 -0.0006436929     18806.87
        9425    0.9997588     1.828739 -0.0006055201     18807.51
        9426    0.9999086     1.828034 -0.0006708005     18807.82
        9427    0.9999277     1.827662 -0.0006267929     18808.22
        9428    0.9997102     1.826701 -0.0005648636     18808.47
        9429    0.9993939     1.826232 -0.0006787144     18807.26
        9430    0.9991957     1.825774 -0.0006106745     18808.17
        9431    0.9987986     1.824947 -0.000643946     18808.76
        9432     0.998602     1.824258 -0.000660949     18808.97
        9433    0.9986864     1.823656 -0.0006200514      18809.7
        9434    0.9988818      1.82313 -0.0005496145     18809.59
        9435    0.9991949     1.822467 -0.0005931425     18809.58
        9436    0.9993682      1.82206 -0.0005874854     18810.31
        9437    0.9994447     1.821283 -0.0005555656     18810.35
        9438    0.9993881      1.82078 -0.000635215     18810.29
        9439    0.9993992     1.820245 -0.0006250145     18809.61
        9440    0.9993828     1.819519 -0.000626762     18809.12
        9441    0.9992845     1.818783 -0.0006503445     18809.64
        9442    0.9990548     1.818273 -0.0006151939     18810.27
        9443    0.9987625     1.817643 -0.0005476985     18808.64
        9444    0.9985204     1.817058 -0.000560597      18808.1
        9445    0.9982894     1.816592 -0.0005647995     18807.15
        9446    0.9983121     1.816031 -0.0005776625     18808.05
        9447    0.9982949     1.815384 -0.0005996745     18809.04
        9448    0.9983483     1.814747 -0.000614886     18809.59
        9449    0.9984388     1.814194 -0.0005849385     18809.98
        9450    0.9984607     1.813572 -0.0005647905        18809
        9451    0.9981392     1.813044 -0.0005428821     18808.16
        9452    0.9982059     1.812488 -0.0006186785     18808.45
        9453    0.9983376     1.812022 -0.000640192     18806.66
        9454    0.9987999     1.811097 -0.0006181331      18807.2
        9455    0.9992906     1.810483 -0.0006531549     18806.81
        9456    0.9999565     1.810016 -0.0005670474     18806.26
        9457     1.000737      1.80941 -0.000487381     18806.03
        9458      1.00126     1.808829 -0.0005147785     18805.26
        9459     1.001182     1.808534 -0.0005465425     18804.56
        9460     1.000995     1.807957 -0.0005452881     18804.74
        9461     1.000858     1.807223 -0.000643569     18806.42
        9462     1.000609     1.806647 -0.0006101584     18807.91
        9463     1.000015      1.80596 -0.0005524235     18808.91
        9464    0.9992908     1.805516 -0.0005620214     18809.74
        9465    0.9987615     1.805014 -0.0005262101     18810.52
        9466    0.9982331     1.804399 -0.0006045655     18811.71
        9467    0.9977004     1.803855 -0.0006148175     18811.24
        9468    0.9973642     1.803098 -0.0006027375     18811.19
        9469     0.997223     1.802554 -0.0005783009     18811.31
        9470    0.9973171     1.801988 -0.000499185      18811.8
        9471    0.9971727     1.801542 -0.000519822     18811.09
        9472    0.9970613     1.801101 -0.0005236475     18809.65
        9473    0.9969958     1.800475 -0.000551762     18808.74
        9474    0.9969693     1.799894 -0.000591862     18807.81
        9475    0.9969188     1.799335 -0.000577245     18806.94
        9476    0.9968045     1.798734 -0.0005689905     18805.79
        9477    0.9969929     1.798166 -0.000554299     18806.34
        9478    0.9973204     1.797618 -0.000535999     18806.26
        9479     0.997686     1.797117 -0.0005505565     18805.55
        9480    0.9977597      1.79659 -0.000533617     18805.16
        9481    0.9972761     1.795964 -0.0005447195     18805.26
        9482    0.9968022     1.795483 -0.0005848805     18803.86
        9483    0.9965227     1.794938 -0.000586908     18799.63
        9484    0.9965614      1.79425 -0.0005935625     18790.82
        9485    0.9965994     1.793616 -0.0005697315     18771.96
        9486    0.9966975     1.793109 -0.0005274804     18763.63
        9487     0.996893      1.79266 -0.0004791176      18770.2
        9488     0.996951      1.79214 -0.000535914     18779.67
        9489    0.9968101       1.7917  -0.00054914     18788.11
        9490    0.9966376     1.790965 -0.000578401     18790.09
        9491    0.9964942     1.790463 -0.000591422     18780.37
        9492    0.9964099     1.789826 -0.0005715566     18763.22
        9493    0.9964321     1.789334 -0.0006159509     18760.67
        9494    0.9965179     1.788679 -0.000560805     18767.87
        9495    0.9965225     1.787999 -0.0005659265     18779.27
        9496    0.9963128     1.787583 -0.0005271625     18788.55
        9497    0.9960417      1.78707 -0.0005501436     18789.86
        9498    0.9957394     1.786571 -0.0006263971     18788.51
        9499    0.9956101     1.785799 -0.0007084719      18788.8
        9500    0.9956101     1.785799 -0.0007084719      18788.8
