# This file has been produced by extranormal (v 1.0.1 - February 23, 2017)
# O. Roudenko - Synchrotron SOLEIL. Covered by GPL licence.
#Data from HDF File: /nfs/ruche-rock/rock-soleil/com-rock/2022/Projets/20220725_Gilles/op3_cell3_cell4/op3_cell4_pos1_dq1/op3_cell4_pos1_dq1_0040/op3_cell4_pos1_dq1_0040_10210.nxs to op3_cell4_pos1_dq1_0040_10233.nxs
#Time at start=2022-07-27 17:39:03.098
#Time from start (seconds)=64.7393907941
#Sample temperature (C)=nan
# Normalization -------------
# pivot spectrum: LNO_pristine_av1100_00001.txt
# E0=8332.88   Eshift=-0.198798835812
# E0_pivot = 8349.6
# pre-edge params: from E0_pivot-240.0 to E0_pivot-50.0
# pre-edge range: [8109.6, 8299.6]
# post-edge params: from E0_pivot+70.0 to E0_pivot+1155.0
# post-edge range: [8419.6, 9500.0]
# I jump at E0_pivot = 0.800045082315
# shifted energy	normalized	reference	ref.derivative	I0
        8060  0.001439777     1.040523 -0.0004880972     14940.98
        8065  0.001171352     1.038083 -0.0004820947     14960.95
        8070 0.0007784017     1.035698 -0.0004607993     14985.41
        8075 -0.0001782737      1.03338 -0.0004491656     15008.81
        8080 0.0008558584     1.031307 -0.0004420742     15030.53
        8085  0.001168432       1.0291 -0.0004410419     15050.23
        8090 0.0003308574     1.026856 -0.0004606436     15072.73
        8095 0.0004010548     1.024559 -0.0004475237     15095.93
        8100 0.0002011337     1.022094 -0.0004511844     15118.42
        8105 0.0004005155      1.02015 -0.0004313242     15141.32
        8110 -0.0003528057     1.017833 -0.0004257369     15160.24
        8115 0.0006931524     1.015933 -0.0004283291     15179.41
        8120 0.0007505818     1.013579 -0.000421295     15199.91
        8125 -0.0004575158     1.011583 -0.0004272227     15220.97
        8130 0.0002446039     1.009407 -0.0004128427     15243.04
        8135 0.0006741001     1.007388 -0.0004108407     15264.13
        8140  0.001338926     1.005322 -0.000400417     15282.83
        8145 -0.0002818729     1.003366 -0.0004102916      15305.4
        8150 -0.0001478398     1.001398 -0.0004076445     15322.98
        8155 -0.0001992255    0.9991823 -0.000422625     15345.86
        8160 0.0004134002    0.9971695 -0.0004279551     15364.47
        8165  0.001657934    0.9949137 -0.0004267932     15392.88
        8170  0.001016071    0.9928392 -0.0004384278     15410.82
        8175 -2.393623e-05    0.9906464 -0.0004335462     15433.48
        8180 0.0009520346    0.9884009 -0.0004273224     15453.59
        8185 -0.001160644    0.9862428 -0.0004235251     15472.27
        8190 -0.001103017    0.9842928 -0.0004071392     15495.22
        8195 -0.0008655624    0.9821759 -0.000401372     15518.05
        8200 -0.0002252137    0.9802581 -0.0004038033     15534.07
        8205 -0.001722888    0.9782153 -0.0004062979     15557.95
        8210 -0.001470293    0.9762167 -0.0004147132     15575.29
        8215 -0.001421324      0.97405 -0.0004130669     15596.14
        8220 -0.001537379    0.9719639 -0.0004080009     15618.26
        8225 -0.0004246587     0.969954 -0.0004106006     15639.96
        8230 9.606705e-06    0.9680567 -0.0003979557     15660.98
        8235 -0.0007802317    0.9658379 -0.0003996053     15677.71
        8240  -0.00101388    0.9640048 -0.0003985757     15699.61
        8245 0.0006021865    0.9619619 -0.000372972     15721.11
        8250 0.0001249698    0.9600852 -0.000387075     15738.86
        8255 -0.0001609996    0.9583785 -0.0003651878     15758.12
        8260 0.0003571616    0.9562633 -0.0003512565     15778.37
        8265 0.0003687906    0.9546581 -0.0003494303     15798.09
        8270  0.001880448    0.9530601 -0.000335912     15819.96
        8275 3.062561e-05    0.9513899 -0.0003348672     15834.99
        8280   0.00023602     0.949545 -0.0003306767     15854.92
        8285 0.0004947541    0.9479608 -0.0003095471     15866.52
        8290 0.0008021907    0.9464465 -0.000287437     15879.99
        8295 0.0009048481     0.945199 -0.0002686133     15890.38
        8300  0.004849794    0.9439234 -0.0002471179     15817.91
      8300.2  0.004885478     0.943944 0.0001795346     15807.51
      8300.4  0.004894689    0.9438715 0.0001171301     15798.05
      8300.6  0.004691675    0.9439895 -2.121647e-05     15789.97
      8300.8  0.004662164    0.9440171 -6.176007e-05      15784.9
        8301  0.004672398    0.9439271 -0.0003134433     15780.86
      8301.2  0.004696532    0.9438221 -0.0004617257     15778.53
      8301.4  0.004741871    0.9437388 -0.0004063152     15777.51
      8301.6  0.004639152    0.9436477 -0.0004712556     15776.31
      8301.8  0.004546969     0.943602 -0.0004127807     15775.61
        8302  0.004534594    0.9434451 -0.0003795859     15775.21
      8302.2  0.004580423    0.9434086 -0.0003213631      15775.5
      8302.4  0.004492147    0.9433441 -0.0003582873     15774.24
      8302.6  0.004399926    0.9433449 -0.0002981274     15772.43
      8302.8  0.004452728    0.9431585 -0.0002921464     15770.34
        8303  0.004431724    0.9431701 -0.0003077679     15766.91
      8303.2  0.004498058    0.9431104 -0.0001378274     15762.46
      8303.4  0.004487718    0.9430987 -1.593031e-05     15755.85
      8303.6   0.00463752    0.9430482 9.572975e-05      15748.5
      8303.8   0.00473201    0.9431573 -6.650322e-05     15738.09
        8304  0.005003132    0.9431869 -1.912968e-05     15726.04
      8304.2  0.005206591    0.9430455 -0.0001057747     15708.88
      8304.4  0.005496009    0.9430329 -0.0002873436     15686.86
      8304.6  0.005858468    0.9430727 -0.0003668388     15657.61
      8304.8  0.006427024    0.9429571 -0.0005064096     15620.33
        8305  0.007085035     0.942752 -0.0008306212     15570.16
      8305.2  0.007777807    0.9426278 -0.0007567457      15508.6
      8305.4  0.008374226    0.9424082 -0.0005596382     15436.03
      8305.6  0.008820647    0.9423517 -0.0003126104     15355.81
      8305.8   0.00870823    0.9423043 7.767582e-05     15276.22
        8306  0.008421062    0.9423777  0.000390847     15204.29
      8306.2  0.007961293    0.9424703 0.0006268976     15148.44
      8306.4  0.007123536    0.9426644 0.0005835206      15111.4
      8306.6  0.006298299    0.9428059 0.0005914132     15095.85
      8306.8  0.005441644    0.9428445 0.0004249809     15102.54
        8307  0.004784132    0.9429435 0.0002768017     15129.12
      8307.2  0.004345882    0.9430043 0.0004438975     15168.17
      8307.4  0.004048015    0.9430273  0.000423815      15215.1
      8307.6  0.003668391    0.9431997 0.0005531055     15268.97
      8307.8  0.003446354    0.9432825 0.0005472402     15326.02
        8308  0.003169301    0.9434468 0.0004251251     15384.66
      8308.2  0.002910186    0.9434651 0.0005057459     15443.93
      8308.4  0.002751308    0.9435398 0.0003778632     15505.03
      8308.6  0.002698952    0.9436871 0.0002180981     15568.87
      8308.8  0.002582232    0.9437491 -5.618605e-05     15630.16
        8309  0.002716983    0.9436396  -0.00050967     15687.37
      8309.2  0.003070531    0.9434948 -0.0008300681     15734.83
      8309.4  0.003535508    0.9432794 -0.0009503846     15771.73
      8309.6  0.004189688    0.9430851 -0.0008460472     15796.13
      8309.8  0.004770039    0.9428793 -0.0005386286     15806.04
        8310  0.005063235     0.942818 -0.0005833188     15805.33
      8310.2  0.005215387    0.9428485 -0.0002152009     15799.09
      8310.4   0.00527303    0.9426184 -0.0001186201     15791.68
      8310.6  0.005323933    0.9427071 3.279415e-06     15786.85
      8310.8  0.005358659    0.9427231 0.0001356298     15785.29
        8311  0.005097853    0.9428511 -0.0001272692      15787.4
      8311.2  0.005033825    0.9427269 -0.0003156092     15795.19
      8311.4   0.00537907    0.9426053 -0.0004644326     15802.21
      8311.6  0.005879711    0.9424706 -0.0003423182     15803.34
      8311.8  0.006251244    0.9424796 -7.745832e-05     15794.69
        8312  0.006442946    0.9424531 0.0002175397     15781.54
      8312.2  0.006645593    0.9425433 0.0004746448     15767.25
      8312.4  0.006730791    0.9426446 0.0006767631     15753.53
      8312.6  0.006789661    0.9428593 0.0005392134     15741.95
      8312.8  0.006803015    0.9429945 0.0002908456     15733.79
        8313  0.007050217    0.9429747 -0.000163725     15728.15
      8313.2  0.007614422    0.9428773 -0.0006437288     15717.03
      8313.4  0.008137968    0.9427283 -0.0007467698     15692.04
      8313.6  0.008899044    0.9424795 -0.0009289653     15652.76
      8313.8  0.009801478    0.9423773 -0.0007831874     15594.97
        8314   0.01062113    0.9421341 -0.0003621884     15518.92
      8314.2   0.01121049    0.9421017 3.226948e-05     15433.84
      8314.4   0.01149304    0.9421897 0.0006453724     15348.63
      8314.6   0.01125847    0.9424031   0.00139057     15271.55
      8314.8   0.01067291    0.9426504  0.001753534     15211.18
        8315   0.00989377    0.9432142  0.001632097     15170.55
      8315.2  0.009013889    0.9435926    0.0014906     15156.39
      8315.4  0.008443789    0.9437088 0.0009341197     15167.08
      8315.6  0.008001061    0.9438429 0.0007433325     15194.36
      8315.8  0.007807775    0.9439615 0.0007341238     15234.95
        8316  0.007461695    0.9441872 0.0008085624     15278.23
      8316.2  0.007453815    0.9442961 0.0007373579     15323.05
      8316.4  0.007398672    0.9444898 0.0005744318     15367.14
      8316.6  0.007265617    0.9445514 0.0005592856     15409.31
      8316.8  0.007186473    0.9446468 0.0003310908     15451.22
        8317  0.007079232    0.9447435 0.0003446224     15494.24
      8317.2  0.007020223    0.9447546 0.0002182516     15537.06
      8317.4  0.006913587    0.9448271 0.0001418321     15579.22
      8317.6  0.006922642    0.9448214 0.0002376806     15621.51
      8317.8  0.006972763     0.944857 0.0002554586     15663.44
        8318  0.006977805    0.9449448 0.0002443304      15702.8
      8318.2  0.007045564    0.9450314 0.0002692987     15737.55
      8318.4  0.007296625    0.9450168 0.0002013365     15768.35
      8318.6  0.007459934    0.9450724 0.0002384856     15794.01
      8318.8  0.007610455    0.9451058 0.0005521313        15816
        8319  0.007700856    0.9452222 0.0006039111     15834.18
      8319.2  0.007627056    0.9454585 0.0006714314     15848.72
      8319.4  0.007827537    0.9455555  0.000561616      15861.7
      8319.6  0.007937804     0.945643 0.0004600223     15872.71
      8319.8  0.008098245    0.9456715 0.0006111954     15883.07
        8320   0.00810672    0.9458266  0.000661017     15891.79
      8320.2  0.008170284    0.9460445 0.0008948639      15900.1
      8320.4  0.008208927    0.9461718 0.0008631253     15907.09
      8320.6  0.008296854    0.9463874 0.0008420387     15913.53
      8320.8  0.008342328    0.9465171 0.0009361928      15918.8
        8321  0.008333499    0.9467181  0.001146098     15923.77
      8321.2  0.008305781    0.9469208  0.001298301     15928.02
      8321.4  0.008435415    0.9473043  0.001301946     15933.67
      8321.6  0.008480771    0.9475557   0.00117616      15938.5
      8321.8  0.008525798    0.9477597 0.0009858453     15943.26
        8322  0.008667797    0.9478617  0.001075228     15948.29
      8322.2  0.008846798     0.948093  0.001387131     15954.18
      8322.4  0.008908585    0.9484159  0.001587215     15959.37
      8322.6  0.009007395    0.9488694  0.001762374      15965.5
      8322.8  0.009019798    0.9491315  0.001649538     15970.67
        8323  0.009103428    0.9495029  0.001596305     15977.48
      8323.2  0.009227162    0.9497355  0.001735172     15985.16
      8323.4   0.00926813    0.9501464  0.001725327     15992.88
      8323.6  0.009375823    0.9505196  0.001962864     16000.29
      8323.8  0.009612986    0.9508831  0.001769017     16008.56
        8324  0.009704434    0.9513058  0.001687548     16015.25
      8324.2  0.009898938    0.9515616  0.001661616     16021.52
      8324.4   0.01004914    0.9518696  0.001736695     16026.81
      8324.6   0.01016924    0.9522124  0.001969608      16031.3
      8324.8   0.01033534    0.9526952   0.00228094     16035.07
        8325   0.01051133    0.9531373  0.002582067     16037.51
      8325.2    0.0107583    0.9536944  0.002666948     16040.09
      8325.4   0.01095062    0.9542781  0.003024605     16042.16
      8325.6   0.01116061    0.9548287  0.003190262      16043.7
      8325.8   0.01127229     0.955557  0.003379923      16044.7
        8326   0.01149709    0.9562466  0.003628617     16045.99
      8326.2   0.01189389     0.956982  0.003702276     16047.75
      8326.4   0.01215262    0.9577316  0.003935518        16049
      8326.6    0.0124246    0.9585188  0.004288613     16050.19
      8326.8   0.01275975     0.959395  0.004717807     16051.61
        8327   0.01301225    0.9604129  0.005194374     16052.05
      8327.2   0.01330113    0.9615059  0.005593729     16052.83
      8327.4   0.01356442    0.9626743  0.005853607     16053.74
      8327.6   0.01394421      0.96387  0.005973647     16055.31
      8327.8   0.01432801    0.9650958  0.006158574     16056.25
        8328   0.01463168    0.9662848  0.006597269     16056.69
      8328.2   0.01492906    0.9676012  0.007171745     16057.91
      8328.4   0.01515766    0.9691478  0.007919876     16059.21
      8328.6   0.01537829    0.9708332  0.008685166     16060.45
      8328.8   0.01544231    0.9726207  0.009610487     16060.91
        8329   0.01565145    0.9745493   0.01057979     16062.13
      8329.2   0.01579122    0.9768362   0.01161328      16062.8
      8329.4   0.01599572     0.979297   0.01287004     16063.27
      8329.6   0.01633414    0.9819113   0.01442247     16064.59
      8329.8   0.01658889    0.9848453     0.016577      16065.3
        8330   0.01700445    0.9883742   0.01933048     16066.39
      8330.2   0.01738746    0.9925586   0.02281333     16067.95
      8330.4    0.0179218    0.9973757    0.0266292     16068.61
      8330.6   0.01839403     1.003096   0.03149949      16069.4
      8330.8   0.01892766     1.009678   0.03804692     16070.25
        8331   0.01941148     1.017758   0.04572021     16070.69
      8331.2   0.02004317     1.027813    0.0557602     16070.89
      8331.4   0.02086791     1.039672   0.06722877     16071.77
      8331.6   0.02180083     1.054286   0.07971082     16072.32
      8331.8   0.02291583     1.071541   0.09355877     16072.71
        8332   0.02423183     1.091582    0.1072625     16073.59
      8332.2   0.02565452     1.114519    0.1199909      16073.4
      8332.4   0.02736833     1.140096    0.1311578      16073.2
      8332.6   0.02945315     1.167534    0.1392741     16073.47
      8332.8   0.03182497     1.196508    0.1447704      16073.9
        8333    0.0343428     1.225938     0.148083     16073.63
      8333.2   0.03702659     1.255912    0.1485213     16073.44
      8333.4   0.03979229        1.286    0.1463446     16073.26
      8333.6   0.04254629     1.315325    0.1430016     16073.41
      8333.8   0.04500552     1.343014    0.1386553        16073
        8334   0.04728606     1.370313    0.1328745     16072.74
      8334.2    0.0492326     1.396925    0.1267211     16072.59
      8334.4   0.05070683     1.421625    0.1195593     16072.79
      8334.6   0.05154013     1.444391    0.1104184     16072.01
      8334.8   0.05202561     1.465961    0.1021154     16072.16
        8335   0.05203195     1.485259   0.09431276     16071.83
      8335.2   0.05183249     1.503317   0.08592588     16072.07
      8335.4   0.05153055     1.519841      0.07757     16072.41
      8335.6   0.05106187     1.534701   0.06934277     16071.89
      8335.8   0.05099234     1.547315   0.06166278     16072.83
        8336   0.05093713     1.558791    0.0553278     16073.06
      8336.2   0.05119046     1.569171   0.05116238     16074.17
      8336.4   0.05161433     1.578964   0.04747462      16074.9
      8336.6   0.05236755     1.588245   0.04460961     16076.36
      8336.8   0.05323661     1.596771   0.04235031     16077.34
        8337   0.05425114     1.604859   0.04091487     16078.24
      8337.2   0.05547081     1.612844   0.04084452     16079.78
      8337.4   0.05680351     1.620977    0.0423211     16080.75
      8337.6   0.05835569     1.629447   0.04485809     16081.68
      8337.8   0.06010199     1.638716   0.04795267     16082.69
        8338   0.06199062      1.64873   0.05157895     16084.16
      8338.2    0.0639928     1.659339   0.05524327     16084.93
      8338.4   0.06642438      1.67071   0.05850935     16087.05
      8338.6   0.06881432     1.682911   0.06107815     16087.51
      8338.8   0.07162276     1.695538   0.06332248     16088.71
        8339   0.07462695     1.708202   0.06425439     16089.64
      8339.2   0.07798642     1.721368   0.06490446     16090.57
      8339.4   0.08174588     1.734314   0.06437097      16091.4
      8339.6   0.08581427     1.747461     0.062652     16091.45
      8339.8   0.09054269     1.759699   0.06078702     16092.21
        8340   0.09571902     1.771489   0.05838815      16092.9
      8340.2    0.1014752     1.782944    0.0575216      16093.6
      8340.4    0.1084359     1.794172   0.05700195     16094.32
      8340.6    0.1161468     1.805716   0.05669259     16094.52
      8340.8    0.1249607     1.817091   0.05712114     16095.31
        8341    0.1345712     1.828298   0.05739477     16095.34
      8341.2    0.1457235     1.839869   0.05891939     16096.13
      8341.4    0.1584294     1.851632   0.06199986     16096.72
      8341.6    0.1728657     1.864226   0.06543124     16097.15
      8341.8    0.1892003     1.877898   0.06912262     16098.34
        8342    0.2061678     1.892214   0.07321861     16098.77
      8342.2    0.2239217      1.90693   0.07796037     16099.16
      8342.4    0.2424102     1.922801   0.08316717     16099.59
      8342.6    0.2621999     1.940266   0.08970315     16100.25
      8342.8     0.282297     1.958748   0.09520257     16101.05
        8343    0.3025324     1.978692    0.1003777     16101.96
      8343.2    0.3220535     1.998963    0.1052382     16102.88
      8343.4    0.3413222     2.020568    0.1086736     16103.55
      8343.6    0.3604676     2.042938    0.1123226     16104.72
      8343.8    0.3788332     2.065631    0.1153619     16105.03
        8344    0.3967979     2.088821    0.1181265      16105.2
      8344.2    0.4145955     2.112858    0.1214728     16105.19
      8344.4     0.432376     2.137439    0.1242067     16105.69
      8344.6    0.4505273     2.162809    0.1256276     16105.65
      8344.8    0.4687729     2.188187    0.1274332     16106.32
        8345    0.4871203      2.21336    0.1286189     16106.54
      8345.2    0.5058733     2.239386    0.1311342     16107.33
      8345.4    0.5255883     2.265705    0.1334538     16107.93
      8345.6    0.5464108     2.293094    0.1341381     16108.29
      8345.8    0.5679082     2.320123    0.1340217     16108.86
        8346    0.5894835     2.346696    0.1323042     16110.46
      8346.2    0.6114911     2.372922    0.1311095     16112.21
      8346.4    0.6337205     2.398938    0.1300685     16112.89
      8346.6    0.6572487      2.42501    0.1282467      16114.4
      8346.8    0.6815162     2.450751    0.1250002     16115.17
        8347    0.7061992     2.475519    0.1200168     16114.84
      8347.2    0.7307656     2.498938    0.1137876     16116.49
      8347.4    0.7555419     2.521024    0.1087425     16117.24
      8347.6    0.7807225     2.541781    0.1021576     16117.25
      8347.8    0.8080683     2.562513   0.09508983      16118.4
        8348    0.8359858     2.580664    0.0866826     16118.89
      8348.2    0.8641731     2.597096    0.0756027     16119.43
      8348.4    0.8927485     2.611127   0.06553889     16118.73
      8348.6    0.9223555     2.622995   0.05658399     16119.19
      8348.8    0.9535391     2.633095   0.04684781     16119.23
        8349    0.9862317     2.642363   0.03971902      16118.9
      8349.2     1.020033     2.648605   0.03275321     16119.36
      8349.4     1.054175     2.654771   0.02537908     16118.81
      8349.6     1.089402     2.659297   0.02081495     16118.74
      8349.8     1.125562     2.662666   0.01448875     16118.31
        8350     1.162092     2.665257  0.009203864     16118.16
      8350.2     1.198853     2.666362  0.005146971     16117.93
      8350.4     1.235834     2.666661  0.001091308      16117.7
      8350.6     1.272245     2.666784 -0.001962819      16118.1
      8350.8     1.308386      2.66613 -0.004267821     16118.44
        8351     1.343646     2.664791 -0.007876318     16118.77
      8351.2     1.376602     2.663246   -0.0103221     16119.33
      8351.4     1.407451     2.660483  -0.01240468     16120.14
      8351.6     1.437167     2.657873  -0.01419312     16120.85
      8351.8     1.465013     2.654868  -0.01448903     16120.23
        8352     1.490703     2.651892  -0.01431896     16120.88
      8352.2     1.512761     2.648891  -0.01423991      16120.6
      8352.4     1.531587     2.646418  -0.01407324     16119.95
      8352.6     1.547673     2.643476  -0.01305777     16120.38
      8352.8     1.560689     2.640633   -0.0122989     16120.53
        8353      1.57043     2.638445  -0.01002156     16120.94
      8353.2     1.576381     2.636579 -0.007126994      16121.4
      8353.4     1.578085     2.635458 -0.003001323     16121.93
      8353.6     1.576004     2.634932 -0.0001849667     16122.21
      8353.8     1.570106     2.636044  0.004603482     16122.81
        8354     1.559398     2.636431  0.009382511      16123.3
      8354.2     1.544867     2.639141   0.01262809     16124.04
      8354.4     1.526816     2.642438   0.01819024     16124.28
      8354.6     1.505781     2.646147   0.02182817     16125.49
      8354.8     1.482029     2.650983   0.02729742     16126.18
        8355     1.456359     2.656604   0.03098656      16126.8
      8355.2     1.429129     2.664276   0.03366565     16128.26
      8355.4      1.40093     2.670936    0.0360058     16128.41
      8355.6      1.37255     2.677915   0.03698154     16129.16
      8355.8     1.344405     2.685408   0.03885055     16130.36
        8356     1.316226     2.693861   0.04035106     16131.22
      8356.2     1.288982     2.702016   0.04001992      16131.6
      8356.4     1.262941     2.710196   0.03869184     16132.91
      8356.6     1.238523     2.717424   0.03664019     16132.68
      8356.8     1.215566     2.724814   0.03341013     16134.06
        8357     1.194161     2.731329   0.03111327     16135.16
      8357.2     1.173817     2.736924   0.02687188      16136.4
      8357.4     1.156133     2.742315   0.02256774     16136.55
      8357.6     1.140318     2.746312    0.0171097     16137.74
      8357.8     1.125996     2.749383   0.01126294      16138.6
        8358     1.112904     2.750612  0.006231874      16139.7
      8358.2     1.101267     2.751325  0.000736049     16140.29
      8358.4     1.091034     2.751297 -0.002859736     16141.69
      8358.6     1.082141     2.749972 -0.006717036     16142.43
      8358.8     1.074138     2.748324  -0.01166463     16142.41
        8359      1.06707     2.745952  -0.01353999     16143.23
      8359.2     1.060516     2.741966  -0.01681459     16144.27
      8359.4     1.054526      2.73914   -0.0188935     16144.65
      8359.6     1.049134     2.734872  -0.01979654     16144.93
      8359.8     1.044365     2.730837  -0.02187432     16145.55
        8360     1.039721     2.726128  -0.02185769     16145.87
      8360.2     1.035415      2.72164  -0.02254761     16146.64
      8360.4     1.031113     2.717386  -0.02138926     16147.67
      8360.6     1.026974     2.712799  -0.02077109     16148.23
      8360.8     1.022878     2.709017  -0.02116654     16149.16
        8361     1.018839     2.705023    -0.019707     16149.62
      8361.2     1.014992     2.700453  -0.01924992     16150.34
      8361.4     1.011316     2.697033  -0.01839255     16152.06
      8361.6     1.007559     2.693617  -0.01671802      16152.7
      8361.8     1.003845     2.690309  -0.01646123     16154.36
        8362      1.00025     2.687079  -0.01691584     16155.02
      8362.2    0.9965687     2.683864  -0.01803066     16156.01
      8362.4    0.9930603     2.680084  -0.01764118     16156.67
      8362.6    0.9898625     2.675885  -0.01851021     16157.24
      8362.8    0.9866598     2.672966  -0.01869941     16158.45
        8363    0.9836482     2.669056  -0.01897435      16159.2
      8363.2    0.9807914     2.665125  -0.02114519     16159.71
      8363.4    0.9783378     2.660705  -0.02231986     16161.61
      8363.6    0.9762897      2.65605  -0.02321537     16162.93
      8363.8    0.9745749       2.6512  -0.02365961     16164.22
        8364    0.9734668     2.646552  -0.02400071     16165.75
      8364.2    0.9724961     2.641778  -0.02365474     16165.72
      8364.4      0.97201     2.636849  -0.02456138     16166.53
      8364.6    0.9721287     2.632276  -0.02494263     16167.34
      8364.8     0.972712     2.626903  -0.02374461     16168.44
        8365    0.9738925     2.621823  -0.02405984     16169.25
      8365.2    0.9755149     2.617853  -0.02196917     16170.07
      8365.4    0.9778036     2.613028  -0.02026905     16172.01
      8365.6    0.9803924     2.609328   -0.0196534     16172.85
      8365.8    0.9833819     2.605608  -0.01796417      16174.4
        8366    0.9865718     2.602131  -0.01663665     16175.32
      8366.2    0.9900326     2.598657  -0.01490612     16176.53
      8366.4    0.9935966     2.596019  -0.01327579     16177.72
      8366.6    0.9974073     2.593683  -0.01172614     16178.81
      8366.8     1.000998      2.59151  -0.01021244     16179.88
        8367     1.004608     2.589276 -0.009253949     16180.34
      8367.2      1.00812     2.587849 -0.008495187      16181.5
      8367.4     1.011516      2.58628 -0.006794623     16182.46
      8367.6     1.014624     2.584714 -0.006899542     16183.24
      8367.8     1.017563     2.583841 -0.005918532     16184.07
        8368     1.019979     2.582329 -0.004530874     16185.39
      8368.2     1.022179     2.581545 -0.005455028     16186.09
      8368.4     1.023998     2.581089 -0.004697561     16187.52
      8368.6     1.025223     2.579476 -0.004796984     16188.86
      8368.8     1.026008     2.578571 -0.005009296     16189.98
        8369     1.026286     2.577708 -0.003684052     16191.12
      8369.2     1.026064     2.577082 -0.003234331     16192.13
      8369.4     1.025379     2.576529 -0.001266548     16192.91
      8369.6     1.024165     2.575984 -0.0006836253     16194.02
      8369.8     1.022472     2.576694 1.099885e-05     16194.66
        8370     1.020517     2.576535  0.001217486     16195.21
      8370.2      1.01818     2.576538  0.001757245     16195.99
      8370.4     1.015533     2.576958  0.002549321     16196.42
      8370.6     1.012367       2.5781  0.003867961     16196.71
      8370.8     1.009122     2.578574  0.005456264     16198.37
        8371     1.005563     2.579632  0.005966463     16199.26
      8371.2     1.001926     2.581323  0.007498499     16200.61
      8371.4    0.9981137     2.582873  0.008786436     16201.06
      8371.6    0.9941172     2.584573   0.01002736     16201.84
      8371.8    0.9899676     2.586662   0.01165395     16203.35
        8372    0.9856958     2.589345   0.01186133     16203.92
      8372.2     0.981355     2.592197   0.01369867     16204.21
      8372.4    0.9770096     2.594062   0.01475774      16204.8
      8372.6    0.9726421     2.597621   0.01559452      16205.7
      8372.8     0.968128     2.601151   0.01863407     16206.63
        8373    0.9635269     2.604672   0.01868644     16207.08
      8373.2    0.9589512     2.608969   0.01887597     16207.76
      8373.4    0.9543421      2.61257   0.01964854     16208.56
      8373.6    0.9496651     2.616251   0.02010542      16209.2
      8373.8    0.9448163     2.620391   0.02040877     16209.89
        8374    0.9399218     2.625054   0.02167332     16210.39
      8374.2    0.9350036     2.628897   0.02291083     16210.77
      8374.4    0.9302132      2.63359   0.02296308     16211.31
      8374.6     0.925342      2.63872   0.02430364     16212.11
      8374.8    0.9202526     2.643424   0.02501197     16213.07
        8375    0.9153138      2.64834   0.02453625     16214.37
      8375.2    0.9103138       2.6536   0.02534122     16213.56
      8375.4    0.9057289     2.658349   0.02621956     16214.98
      8375.6    0.9008737     2.663697   0.02706231     16215.23
      8375.8    0.8961258     2.669315   0.02814883     16216.05
        8376    0.8912629      2.67525   0.02819213      16216.2
      8376.2    0.8868004     2.680868   0.02895676     16217.01
      8376.4    0.8825052     2.686251    0.0286216     16217.93
      8376.6    0.8783008     2.692481   0.03014355     16218.51
      8376.8    0.8741752     2.698147    0.0314472     16219.26
        8377    0.8701276     2.704983   0.03106189     16220.58
      8377.2    0.8661203     2.711409   0.03160823     16221.27
      8377.4    0.8624792      2.71733    0.0306584     16222.44
      8377.6    0.8589981     2.723433    0.0298835     16223.54
      8377.8     0.855777     2.729509   0.03023994     16224.53
        8378    0.8526232     2.735315   0.02993554     16224.77
      8378.2    0.8496808     2.741522   0.02988665     16225.43
      8378.4    0.8468658     2.747382   0.02973848     16226.14
      8378.6    0.8441516     2.753419   0.02883599     16225.93
      8378.8    0.8416549     2.759106   0.02846859     16226.68
        8379    0.8393489     2.764591   0.02782001     16227.91
      8379.2    0.8372504     2.770157   0.02724076     16228.55
      8379.4    0.8352767     2.775675   0.02635123     16229.66
      8379.6    0.8333971     2.780899   0.02496163     16230.26
      8379.8    0.8315488     2.785672   0.02398083     16230.87
        8380    0.8300449     2.790126   0.02324277     16231.89
      8380.2     0.828668     2.794859   0.02225104     16233.08
      8380.4     0.827403     2.799493      0.02171     16233.56
      8380.6    0.8264526     2.803473   0.01905836     16234.75
      8380.8    0.8256448     2.807494   0.01754535     16235.74
        8381    0.8248601     2.810106   0.01565995     16235.85
      8381.2    0.8244347     2.813529   0.01322042     16237.35
      8381.4    0.8241396     2.816001   0.01281704     16238.35
      8381.6    0.8239873      2.81807    0.0102679      16239.1
      8381.8    0.8239905      2.82036  0.008767771     16239.71
        8382    0.8241903     2.821744  0.006947879     16239.83
      8382.2    0.8245143     2.823015  0.003946506        16241
      8382.4    0.8250303     2.823629  0.001970033     16241.81
      8382.6    0.8256206     2.823517 -5.26378e-05     16242.95
      8382.8    0.8265385      2.82332 -0.002493252     16243.64
        8383    0.8275016     2.822973 -0.003221849     16244.84
      8383.2    0.8283963     2.821634 -0.004493604     16245.07
      8383.4    0.8295224     2.820939  -0.00753374     16245.86
      8383.6    0.8306464     2.819725 -0.008069026     16246.82
      8383.8    0.8318255     2.816946  -0.01085352     16247.23
        8384    0.8331985     2.815179  -0.01276909     16248.66
      8384.2    0.8347002     2.812257  -0.01312805     16249.79
      8384.4    0.8362674      2.80951  -0.01557181     16250.65
      8384.6    0.8378048     2.806443   -0.0164414     16251.27
      8384.8     0.839364     2.802721   -0.0178289     16252.18
        8385    0.8409929     2.799103  -0.01985913     16252.97
      8385.2    0.8424381     2.795246  -0.02082604     16253.07
      8385.4    0.8438825     2.790556  -0.02196167     16253.91
      8385.6    0.8453741     2.786061  -0.02392963     16254.45
      8385.8    0.8468335     2.781534  -0.02492395     16254.74
        8386     0.848311     2.776103  -0.02548205     16255.65
      8386.2    0.8497774     2.770617  -0.02691201     16256.63
      8386.4    0.8511203     2.765675  -0.02714294      16256.8
      8386.6    0.8524387     2.760004  -0.02764432     16257.32
      8386.8    0.8537344     2.754388  -0.02922821     16257.93
        8387    0.8548091     2.748501  -0.02974782     16258.47
      8387.2    0.8560095     2.742292  -0.03124564     16259.27
      8387.4    0.8571318     2.736206  -0.03113988      16259.9
      8387.6    0.8581616     2.729392  -0.03079431     16260.63
      8387.8    0.8592972      2.72359  -0.03079116     16261.83
        8388    0.8603769     2.717657  -0.03037699      16262.7
      8388.2    0.8614367     2.711573   -0.0314545      16263.3
      8388.4    0.8627094      2.70509  -0.03161245     16264.52
      8388.6    0.8639038     2.698426  -0.03147264     16265.34
      8388.8    0.8649985     2.692367  -0.02983329     16265.89
        8389    0.8662124     2.686395  -0.02833761     16266.54
      8389.2     0.867644     2.681224  -0.02674348     16268.19
      8389.4    0.8690209     2.675756  -0.02567745     16268.92
      8389.6    0.8702142     2.670972  -0.02613177     16268.71
      8389.8    0.8716035     2.665853  -0.02502121      16269.4
        8390    0.8731414     2.660318  -0.02633685     16269.86
      8390.2    0.8746027     2.655739  -0.02555466     16269.83
      8390.4    0.8763551     2.649903  -0.02441946     16270.44
      8390.6    0.8779327     2.645409  -0.02459471     16270.49
      8390.8    0.8796024     2.640783  -0.02263184     16270.87
        8391    0.8813892     2.636063  -0.02238701     16271.34
      8391.2    0.8833124     2.631797  -0.02215504     16271.89
      8391.4     0.885292       2.6275  -0.02137707     16272.59
      8391.6    0.8872503     2.623059  -0.02055276     16273.41
      8391.8     0.889249     2.618961   -0.0193257      16273.5
        8392    0.8912946     2.615355   -0.0186394     16274.11
      8392.2    0.8933296     2.612039  -0.01858587     16274.61
      8392.4    0.8955612     2.608147  -0.01883709     16275.09
      8392.6    0.8979615     2.604093  -0.01833416     16275.98
      8392.8    0.9003936     2.600285  -0.01771251     16277.21
        8393    0.9027545     2.597372  -0.01635447     16278.09
      8393.2    0.9053073     2.593977   -0.0147795     16278.85
      8393.4    0.9077524     2.591009  -0.01489216     16279.23
      8393.6    0.9106139     2.588462   -0.0139315     16280.65
      8393.8    0.9133452     2.585458  -0.01340387     16281.13
        8394    0.9162986     2.582832  -0.01266616      16282.2
      8394.2     0.919195     2.580286  -0.01097681     16282.76
      8394.4    0.9221104     2.578329 -0.009727959     16283.68
      8394.6    0.9253416     2.576677 -0.008503093     16284.08
      8394.8    0.9285873     2.575049 -0.007930875     16284.26
        8395    0.9319403     2.573484  -0.00687568     16284.87
      8395.2    0.9353361     2.571984 -0.005970754     16285.51
      8395.4    0.9387701     2.571176 -0.004973555     16286.09
      8395.6    0.9423464     2.570273 -0.004374546      16287.7
      8395.8    0.9457556     2.569505 -0.003579557      16287.8
        8396    0.9493045     2.568484 -0.002967718     16288.96
      8396.2    0.9528488     2.568313 -0.002858538     16289.61
      8396.4     0.956287     2.567899 -0.001491692      16290.7
      8396.6    0.9598555     2.567218 -0.001967761     16291.48
      8396.8    0.9634992     2.567291  -0.00164467     16292.59
        8397    0.9672102     2.566738 -0.0007853924      16293.4
      8397.2    0.9705387     2.566583  -0.00124114     16293.81
      8397.4    0.9739236      2.56659 0.0005223033     16293.79
      8397.6    0.9776312     2.566298 0.0004304942     16295.05
      8397.8    0.9809718     2.567156  0.001190852     16294.34
        8398    0.9844405     2.566927 0.0008443216     16295.27
      8398.2    0.9874537     2.567542 -0.000207843     16295.26
      8398.4    0.9907455     2.566974 -0.000494966     16296.17
      8398.6    0.9938758      2.56699 -0.0007268219     16296.63
      8398.8    0.9968283     2.566531 0.0001364133     16296.54
        8399    0.9997597     2.566961 8.767604e-05     16296.56
      8399.2     1.002658     2.567083 0.0002397293     16297.58
      8399.4     1.005415      2.56706 -0.0004952784     16298.14
      8399.6     1.008074     2.566723 -0.002226075     16298.68
      8399.8     1.010971     2.566565 -0.003123826     16299.67
        8400     1.013811     2.565956 -0.003162356     16300.45
        8401     1.028004     2.562719 -0.003247877     16304.23
        8402     1.042256     2.558879 -0.002868015     16307.42
        8403      1.05671     2.555811 -0.001758505     16310.56
        8404     1.070801     2.554484 0.0001354911     16314.59
        8405      1.08386     2.555685  0.002396782     16318.83
        8406     1.094726     2.559421  0.004681423     16323.46
        8407     1.101967     2.565398  0.006131267     16327.46
        8408      1.10517     2.573209  0.006812126      16332.1
        8409      1.10455      2.58021  0.006696562     16337.13
        8410     1.101219     2.586669  0.006246977     16341.39
        8411     1.095995     2.592184  0.006007529     16345.47
        8412     1.089436     2.598197  0.006312979     16348.56
        8413     1.081894      2.60424  0.007390807     16352.67
        8414     1.074248     2.611921  0.008752797     16358.28
        8415     1.066497     2.621748   0.01028455      16362.7
        8416     1.058922     2.633208   0.01120671     16366.13
        8417       1.0515     2.645378   0.01140602     16370.56
        8418     1.044102     2.656748   0.01106215     16375.94
        8419     1.036971     2.667372   0.01058138      16380.5
        8420     1.030055     2.677457   0.01044569     16383.36
        8421     1.023039     2.687704   0.01087193     16386.63
        8422     1.016272     2.698531   0.01157284     16390.67
        8423     1.009763     2.710859   0.01248785      16393.9
        8424     1.003806     2.723748   0.01346572     16395.88
        8425    0.9985004     2.737655   0.01387087     16397.46
        8426    0.9937945     2.752394    0.0140308     16400.22
        8427    0.9894377     2.766343   0.01355152     16403.81
        8428     0.985118     2.779871   0.01220396     16406.86
        8429    0.9811081     2.791861   0.01003066     16410.19
        8430    0.9781298      2.80121  0.007291194     16414.21
        8431    0.9761717     2.806465  0.003828617     16418.63
        8432    0.9752662     2.809036 0.0002921635     16423.54
        8433    0.9752675     2.807176  -0.00345742     16427.87
        8434    0.9761846     2.802378 -0.007310758     16430.62
        8435    0.9779258     2.792636  -0.01051829     16435.35
        8436    0.9799952     2.779793  -0.01322895     16439.25
        8437    0.9821397     2.765102  -0.01495146     16441.91
        8438    0.9839618     2.749462  -0.01597309     16444.44
        8439    0.9857651      2.73283   -0.0167356     16449.86
        8440    0.9873366     2.715901  -0.01722626     16455.02
        8441    0.9885838      2.69816  -0.01739745     16458.87
        8442    0.9893972     2.680557  -0.01704028     16462.61
        8443     0.990114      2.66324  -0.01603206     16466.44
        8444    0.9907128      2.64774  -0.01479669     16470.42
        8445    0.9912199     2.634032  -0.01328111     16473.66
        8446    0.9917093     2.621371  -0.01190175     16476.12
        8447    0.9921535     2.610116  -0.01110882     16478.66
        8448     0.992503     2.600133  -0.01108008      16482.6
        8449    0.9925616     2.589597  -0.01183511      16487.4
        8450    0.9928323      2.57705  -0.01333989     16492.75
        8451    0.9928669     2.562775  -0.01482821     16496.76
        8452    0.9927153     2.546773  -0.01570253     16500.91
        8453    0.9927854     2.530284  -0.01580302     16505.15
        8454    0.9932692      2.51424  -0.01493712      16509.1
        8455    0.9937524     2.499563  -0.01361715     16511.36
        8456    0.9939801     2.487025  -0.01163543     16515.67
        8457    0.9943447     2.475815 -0.009197177     16519.43
        8458    0.9947155     2.467698 -0.006520025      16523.9
        8459    0.9950535     2.462774 -0.003502119      16527.7
        8460    0.9953205     2.460945 -0.0004600118     16530.91
        8461    0.9954033     2.461807  0.002290757     16534.57
        8462    0.9950202     2.465858  0.004693419     16538.54
        8463    0.9942086     2.471938    0.0069041      16542.1
        8464     0.993019     2.479718  0.008451259     16545.34
        8465    0.9913134     2.489423  0.009544963      16548.6
        8466    0.9891957     2.499663   0.01053066     16552.72
        8467     0.986246     2.510117    0.0109715     16556.29
        8468    0.9820352     2.521841    0.0112693     16559.36
        8469    0.9771658     2.533309   0.01128758     16562.98
        8470    0.9719137     2.544741   0.01057823     16565.72
        8471    0.9664866     2.555268  0.009454922     16568.11
        8472    0.9616719     2.564154  0.007787407     16571.51
        8473    0.9576055     2.571129  0.005787771     16575.71
        8474    0.9539948      2.57589  0.003790915     16579.69
        8475    0.9511023     2.578419  0.001674676     16583.27
        8476    0.9494359     2.579317 -0.0001376462     16586.18
        8477    0.9489874     2.577827 -0.001652999     16588.34
        8478     0.949965      2.57534 -0.002545113     16591.78
        8479    0.9520505     2.571807 -0.002482365     16594.79
        8480    0.9553643     2.569137 -0.001757568     16599.59
        8481    0.9599997     2.567898 -0.000222621     16605.95
        8482     0.965407     2.568309   0.00191187     16611.66
        8483    0.9713076     2.570916  0.004747807     16616.21
        8484    0.9775566     2.576785  0.008124504     16620.25
        8485    0.9839654     2.586889   0.01178519     16621.98
        8486    0.9902749     2.600807   0.01516147     16624.26
        8487    0.9958632     2.618057   0.01767245     16626.68
        8488     1.000946      2.63743   0.01914221     16630.64
        8489     1.005333     2.657579   0.01957196     16634.53
        8490     1.009149     2.677376   0.01899513     16637.53
        8491     1.012726     2.696345   0.01752414     16642.09
        8492     1.015904     2.713411   0.01561813     16648.33
        8493     1.018332     2.727676   0.01302744     16653.15
        8494     1.020312     2.739849   0.01025235     16655.31
        8495     1.022239     2.748455  0.007774857      16658.1
        8496     1.023531      2.75442  0.005406093     16661.03
        8497     1.024372     2.758775  0.003717532     16664.25
        8498     1.024847     2.761473  0.002002644     16666.94
        8499     1.024629     2.763325 0.0004320688     16668.48
        8500     1.024504     2.762431 -0.0009298937     16672.48
        8501     1.024538     2.760503 -0.002640174     16677.51
        8502     1.025116     2.757754 -0.004285853     16682.74
        8503     1.026035     2.752764  -0.00620233     16687.21
        8504      1.02715     2.745287 -0.008519822     16690.91
        8505     1.028424     2.735694  -0.01073993     16694.39
        8506     1.029872     2.723674   -0.0128921     16697.41
        8507     1.031686     2.709804  -0.01485431     16700.48
        8508     1.033559     2.693719  -0.01676914     16704.64
        8509     1.035139     2.676277  -0.01864516      16707.6
        8510     1.036592     2.656598  -0.02011271     16711.64
        8511      1.03807     2.635224  -0.02146998     16715.55
        8512     1.039654     2.613268  -0.02251879     16720.08
        8513     1.041918     2.590397  -0.02331156     16724.45
        8514     1.045865     2.566522  -0.02390673     16726.11
        8515     1.049735     2.541978  -0.02431375     16712.86
        8516       1.0514     2.517641   -0.0241091     16691.42
        8517     1.052214     2.493142  -0.02341426     16683.48
        8518     1.051759     2.470086  -0.02209156     16683.34
        8519     1.050202      2.44832  -0.01994388     16684.52
        8520     1.049016     2.429275  -0.01742483     16684.62
        8521     1.046358     2.413366    -0.014445     16687.31
        8522     1.042838     2.400387  -0.01108946      16690.4
        8523     1.039735      2.39054 -0.007605674     16695.19
        8524       1.0377     2.384917 -0.004138581     16701.92
        8525     1.036343     2.382944 -0.0006885992     16705.49
        8526     1.032879     2.383832  0.002544693     16707.46
        8527     1.027707     2.387786  0.005493911     16710.65
        8528     1.023002     2.395096  0.008221299     16719.12
        8529     1.018086     2.404919   0.01014799     16725.28
        8530     1.012892     2.416718   0.01146675      16727.7
        8531      1.00864     2.428378   0.01233541     16728.84
        8532     1.005502     2.440963   0.01263436     16732.58
        8533     1.001425     2.454261   0.01286574     16735.43
        8534    0.9957563     2.467255   0.01258795     16737.97
        8535     0.991156     2.479841   0.01191238     16744.81
        8536    0.9870274     2.491315   0.01105166     16748.91
        8537    0.9829445      2.50191   0.01008212     16750.71
        8538    0.9805464     2.511462  0.009010946     16750.55
        8539    0.9779704     2.520169  0.007698355     16752.71
        8540    0.9750255     2.527359  0.006521768     16761.33
        8541    0.9739151     2.532704  0.004976588     16765.88
        8542    0.9739112     2.537549  0.003541947     16767.63
        8543    0.9741169     2.540076  0.002200375     16772.61
        8544    0.9752891     2.541526 0.0007568547     16779.01
        8545    0.9777391     2.541505 -0.0002134898     16783.05
        8546     0.979097     2.540576 -0.001084117     16784.37
        8547    0.9803909     2.539222 -0.001589695     16787.81
        8548     0.981757      2.53719  -0.00207577     16791.85
        8549     0.983443     2.535147 -0.002489423     16796.39
        8550     0.986167     2.532273 -0.002574289     16800.99
        8551    0.9883688     2.529264 -0.002834633     16806.77
        8552    0.9904818     2.526893 -0.002918436     16808.39
        8553    0.9931281     2.523808 -0.003025164     16809.97
        8554    0.9958439     2.520599 -0.003418318     16814.66
        8555    0.9977281     2.517163 -0.003634424     16818.36
        8556     1.000093     2.513219 -0.003940901     16822.65
        8557     1.002242      2.50927 -0.004191906     16827.25
        8558     1.003695     2.504836 -0.004156448     16832.47
        8559     1.004728     2.500396 -0.004174984     16834.32
        8560      1.00514     2.496594 -0.003716471      16833.7
        8561     1.005714      2.49257 -0.002979873     16836.53
        8562     1.006113      2.48997 -0.001919634      16843.1
        8563     1.007157     2.488476 -0.0002208629     16848.08
        8564     1.008299     2.488915  0.001395957      16851.5
        8565     1.008387     2.491687  0.003293694      16856.1
        8566     1.008134     2.495554  0.005080846     16862.12
        8567      1.00821     2.501651  0.006536004     16864.55
        8568     1.008472     2.509239  0.007949737     16864.98
        8569     1.008277     2.517831  0.008953106     16869.62
        8570     1.008351     2.527353  0.009430153     16874.93
        8571     1.009537     2.537464  0.009446703     16880.94
        8572     1.011179     2.546959  0.008907566     16889.89
        8573     1.012106     2.555618  0.008326298     16895.52
        8574     1.013102     2.562983  0.007767661     16897.34
        8575     1.014433     2.570769  0.006897134     16900.18
        8576     1.014211      2.57803   0.00627649     16904.85
        8577      1.01396     2.583206  0.005185799     16908.46
        8578     1.014393     2.588089  0.004106005     16914.17
        8579     1.015034     2.591512  0.003163974     16919.94
        8580     1.015355     2.594454  0.002304412     16923.63
        8581      1.01578     2.595862  0.001379141     16927.77
        8582     1.016196     2.597307 0.0001822467      16932.9
        8583     1.017127     2.597029 -0.0006067241     16936.77
        8584      1.01791     2.595183 -0.001833735     16938.18
        8585     1.018538     2.593435 -0.003071259     16939.78
        8586     1.018819     2.589972 -0.004062579     16941.36
        8587     1.019154     2.584743 -0.005533028     16942.62
        8588      1.01985     2.578932 -0.006874566     16943.55
        8589      1.02044     2.571303 -0.008017122     16947.61
        8590     1.021045     2.562473 -0.009160684     16955.44
        8591     1.020973     2.552675  -0.01001519     16959.79
        8592     1.019242      2.54229  -0.01061207     16960.51
        8593     1.017769     2.531242   -0.0110933     16961.48
        8594     1.016831     2.520025  -0.01136905     16964.95
        8595     1.014974     2.508302  -0.01154205     16969.21
        8596     1.012691     2.496814  -0.01143447     16972.35
        8597     1.010985     2.485074  -0.01122687      16973.7
        8598     1.009546     2.474287  -0.01083819     16975.82
        8599     1.007546     2.463394  -0.01030465     16979.03
        8600     1.005267     2.453461  -0.00978799     16984.93
        8601     1.003103     2.443856 -0.009171712     16989.66
        8602      1.00128     2.435135 -0.008353128     16990.35
        8603    0.9999156     2.426707 -0.007280686     16993.78
        8604    0.9985197     2.420048 -0.006262069     17000.37
        8605    0.9979332     2.414733 -0.005200532      17008.1
        8606    0.9976241     2.410087 -0.004391448     17011.57
        8607    0.9966986     2.405905 -0.003603709     17015.11
        8608    0.9961122     2.402482 -0.002749557     17019.87
        8609    0.9945803     2.400318 -0.001871912     17022.57
        8610     0.993363     2.399089 -0.001170627     17026.27
        8611    0.9930527     2.398418 -0.0006320154     17030.41
        8612    0.9935107       2.3978 -0.0002573836     17035.12
        8613    0.9934255      2.39779 -0.0001665987     17037.42
        8614    0.9928552     2.398059 1.979824e-05     17039.74
        8615    0.9920686     2.397751 -6.607088e-08     17044.27
        8616    0.9916236     2.397879 -0.0001755257     17046.33
        8617    0.9915801      2.39779 -0.0001206927     17047.07
        8618    0.9915279     2.397357 -0.0003412693     17048.51
        8619    0.9915337     2.397269 -0.0003573965     17049.81
        8620    0.9914186     2.396514 -0.0002426792        17050
        8621    0.9917597      2.39636 -0.0004055392      17044.5
        8622    0.9930238     2.396386 -5.785055e-05     17023.17
        8623    0.9945224     2.395646 -0.0001117438     16937.56
        8624    0.9938444     2.396283 -7.97793e-05     16807.51
        8625     0.993553     2.395913 -8.351715e-05     16837.08
        8626    0.9931195     2.396067 -0.0003321163     16898.87
        8627    0.9953711     2.395312 -0.0001705011     17045.66
        8628    0.9971548     2.394954 -8.844949e-05     17082.51
        8629    0.9987873     2.395231 0.0002200754     17092.92
        8630     1.000074     2.395713  0.000567171     17098.83
        8631     1.001071     2.396193 0.0009782087     17104.29
        8632     1.002173     2.397223  0.001246067     17110.29
        8633     1.002796     2.399144  0.001532932     17112.94
        8634     1.003159     2.400698  0.001788409     17114.16
        8635     1.003149     2.402324  0.001782071     17117.96
        8636     1.003004     2.404377  0.001925456      17124.2
        8637     1.002841     2.406272  0.002050729     17129.93
        8638     1.003232       2.4084  0.002140848     17131.88
        8639       1.0035     2.410527  0.002162639     17133.64
        8640      1.00349      2.41294  0.002157804     17136.34
        8641     1.004067     2.414923  0.002029877     17138.76
        8642     1.004465     2.417031  0.001783416     17140.49
        8643     1.004995     2.418647  0.001656694     17142.74
        8644     1.005816     2.420074  0.001467791     17145.67
        8645     1.006284      2.42155  0.001305536     17148.12
        8646     1.006135     2.422902  0.001245282     17153.73
        8647     1.006197     2.423869  0.001130027     17158.48
        8648     1.006827     2.425055 0.0009492268     17163.38
        8649     1.007652      2.42607 0.0008218108     17168.22
        8650     1.008348     2.426699 0.0007418638     17173.15
        8651     1.009047     2.427156  0.000620456     17177.72
        8652     1.010055     2.428022 0.0006982278     17182.79
        8653     1.011213     2.428551 0.0008424738     17185.77
        8654     1.011595     2.429492 0.0007978271     17188.56
        8655     1.011641     2.430526 0.0009721713     17192.72
        8656     1.012085     2.431213  0.001077698     17197.45
        8657     1.012773      2.43244  0.001058947     17200.46
        8658     1.013383     2.433803  0.001207164     17203.95
        8659       1.0135     2.434762  0.001218751     17207.24
        8660      1.01361     2.436042  0.001351536     17209.78
        8661     1.013635     2.437315  0.001490492     17212.11
        8662     1.013168     2.439209  0.001507953     17215.27
        8663      1.01299     2.440724  0.001561448     17219.73
        8664      1.01334     2.442074  0.001538674      17223.3
        8665      1.01387     2.443561    0.0014114     17224.13
        8666     1.013717     2.445363  0.001254852     17225.21
        8667     1.013299     2.446369 0.0009352449     17229.77
        8668     1.012322     2.447093  0.000521417      17233.6
        8669      1.01187     2.447302 0.0001746686     17237.05
        8670     1.011643     2.447449 -0.0003872477     17241.68
        8671     1.010477     2.447068 -0.0008103659     17246.72
        8672     1.008597     2.445544 -0.001409461     17248.75
        8673      1.00619      2.44406 -0.001866984     17250.63
        8674      1.00459     2.441811 -0.002191128     17255.42
        8675     1.003371       2.4396  -0.00270719     17257.55
        8676      1.00185      2.43678 -0.003063998     17259.63
        8677    0.9999723     2.433232 -0.003473249     17263.74
        8678     0.998007     2.429555 -0.003781446     17267.78
        8679    0.9965691     2.425707 -0.004035862     17273.43
        8680    0.9953317     2.421654 -0.004196332     17276.69
        8681     0.993899     2.417088 -0.004365792     17279.89
        8682    0.9928352      2.41277 -0.004584898      17284.3
        8683    0.9923119     2.408244 -0.004626397     17288.16
        8684    0.9918691     2.403314 -0.004765082     17289.72
        8685    0.9914144     2.398583 -0.004672567     17290.62
        8686    0.9906886      2.39371 -0.004391616     17292.38
        8687    0.9898356     2.389554 -0.004277521      17294.4
        8688    0.9895779     2.385748 -0.003953948     17297.44
        8689     0.989386     2.381473  -0.00367589     17301.11
        8690    0.9891121     2.377894 -0.003350615     17304.28
        8691    0.9894144      2.37485 -0.002775411     17307.81
        8692    0.9897907     2.372346 -0.002302935     17310.87
        8693     0.989768     2.370371 -0.001922816     17314.25
        8694    0.9899608     2.368682 -0.001504496     17318.56
        8695    0.9905764     2.367159 -0.001138624     17322.93
        8696    0.9905682     2.366328 -0.0008669815     17326.12
        8697    0.9905859     2.365816 -0.000562967     17325.78
        8698    0.9910192     2.365214 -0.0004425093     17313.47
        8699    0.9910321     2.364907 -0.0004277896     17301.44
        8700    0.9907797     2.364558 -0.0003960267     17307.69
        8701    0.9908721     2.364105 -0.0005354184     17318.55
        8702    0.9908717      2.36363 -0.0007476753     17332.01
        8703    0.9906607     2.362765 -0.001151757     17341.31
        8704    0.9907113     2.361567 -0.001494879     17345.99
        8705    0.9906699     2.359498 -0.001904314     17345.82
        8706    0.9906132      2.35765 -0.002296482     17336.66
        8707    0.9903965     2.355148 -0.002592451     17327.72
        8708    0.9905915     2.352381  -0.00300569     17333.33
        8709    0.9909128     2.349128  -0.00331931        17343
        8710    0.9911115     2.345628 -0.003606504     17355.49
        8711    0.9908306     2.341871 -0.003770521     17363.62
        8712    0.9903164     2.337955 -0.003919672     17369.44
        8713     0.990182     2.334046 -0.003789315     17374.54
        8714    0.9904189     2.329949 -0.003576897     17378.18
        8715    0.9902736     2.326714 -0.003234352     17383.15
        8716    0.9897926     2.323647 -0.002673553     17387.35
        8717    0.9895831     2.321109  -0.00238011     17391.13
        8718    0.9898218     2.319255 -0.001808731     17394.89
        8719    0.9900811     2.317193 -0.001355733     17400.32
        8720    0.9905848     2.316412 -0.001063002     17404.66
        8721    0.9910939     2.315686 -0.0007046261     17407.29
        8722    0.9914206     2.315003 -0.0006689892     17408.47
        8723    0.9918496     2.314375 -0.0005331043     17410.85
        8724     0.992168     2.313736 -0.0005316598     17414.53
        8725     0.992648     2.313554 -0.0005416197     17418.29
        8726    0.9929792     2.312876 -0.0004702493     17421.76
        8727    0.9933725     2.312208 -0.0004559394     17426.61
        8728    0.9939833     2.311855 -0.0003988644     17430.03
        8729    0.9946096      2.31173 -0.0002574416     17432.88
        8730    0.9949988     2.311281 -0.0002659706     17434.58
        8731    0.9955928     2.311178 -0.0002694489     17436.22
        8732    0.9968599     2.310792 -0.0001788775     17440.59
        8733    0.9982959     2.310652 -0.0002033624     17445.92
        8734    0.9991152     2.310565 9.061587e-06     17450.75
        8735    0.9993898     2.310365 5.298884e-05     17454.68
        8736    0.9993222     2.310828 0.0001742227     17456.42
        8737    0.9995535     2.310864 0.0002999651     17459.51
        8738     1.000487     2.311262 0.0001406215      17464.9
        8739     1.001504     2.311565 0.0001917751     17469.07
        8740     1.002432      2.31139 0.0001410693      17471.7
        8741     1.003427     2.311631 0.0002799161     17472.87
        8742     1.004452     2.311826 0.0004147562     17474.73
        8743     1.005207     2.312684 0.0004733709     17477.33
        8744     1.005631     2.313049 0.0005266279     17479.44
        8745      1.00619     2.313525 0.0004413929     17483.38
        8746     1.006862     2.313933 0.0004645709     17487.06
        8747     1.006782      2.31445 0.0004264098     17488.25
        8748      1.00677     2.314908 0.0005105173     17489.45
        8749      1.00674      2.31523 0.0004899485     17490.93
        8750     1.006658     2.315975 0.0004798074     17495.01
        8751      1.00662      2.31641 0.0005003503     17498.33
        8752     1.006588     2.316827 0.0003975525     17500.05
        8753     1.006277     2.317232 0.0004091217     17503.02
        8754     1.006851     2.317565 0.0004225431     17509.06
        8755     1.007616     2.318046 0.0004054978     17512.06
        8756     1.007893     2.318517 0.0004548497     17514.81
        8757     1.007482     2.318854 0.0003237826     17517.23
        8758     1.007475     2.319385 0.0002829848     17519.38
        8759     1.007542     2.319341 0.0002505468     17521.73
        8760     1.007367     2.319649  0.000181229     17526.91
        8761      1.00645     2.319856 0.0002699097     17531.77
        8762     1.005104     2.320109 0.0002477543     17536.68
        8763     1.003592     2.320421 0.0002078744     17540.32
        8764     1.002374      2.32064 0.0001585247     17542.99
        8765     1.001374     2.320687 0.0001276904     17545.93
        8766      1.00071     2.320744 0.0001349072     17548.85
        8767    0.9999241     2.320932 0.0001578825     17550.61
        8768    0.9992953      2.32118 0.0001135428     17553.02
        8769    0.9988501     2.321319 -6.626537e-05     17557.45
        8770    0.9982922     2.321198 -0.0001152614     17560.44
        8771    0.9972077     2.320667 -0.0001665751     17563.61
        8772    0.9960317     2.320719 -0.0002612893     17567.25
        8773    0.9950152     2.320653 -0.0002746162     17570.32
        8774    0.9942552     2.320153 -0.0004431988     17573.56
        8775    0.9936378     2.319568 -0.0005709696     17576.76
        8776    0.9933693     2.318946 -0.0007090761     17579.43
        8777    0.9934277     2.318369 -0.0007918916     17581.05
        8778    0.9934931     2.317316 -0.0009804619     17581.82
        8779    0.9933042     2.316401 -0.001201648     17583.09
        8780    0.9928383     2.315024  -0.00130201     17585.07
        8781    0.9932075     2.313562 -0.001473433     17590.11
        8782    0.9939099     2.312108 -0.001612797     17593.95
        8783    0.9947379     2.310507 -0.001784141     17596.41
        8784    0.9952093     2.308573 -0.001983778     17598.18
        8785    0.9950777     2.306426 -0.002100614     17600.23
        8786    0.9946383     2.304173 -0.002351198     17602.53
        8787    0.9944685     2.302105 -0.002511222     17605.15
        8788    0.9945249     2.299168 -0.002595985     17605.11
        8789    0.9949381     2.296381 -0.002781354     17606.94
        8790     0.995274     2.293789 -0.002649603      17610.7
        8791    0.9956258     2.290979 -0.002558306     17614.54
        8792    0.9956337     2.288569 -0.002585337     17619.01
        8793    0.9958995     2.286147 -0.002463644     17622.72
        8794    0.9960427     2.283448 -0.002402996     17625.11
        8795    0.9961311     2.281125  -0.00225895      17627.4
        8796    0.9961924     2.278958 -0.002085939     17629.64
        8797    0.9964854     2.277112  -0.00185643     17631.59
        8798    0.9967081     2.275104 -0.001783624     17633.79
        8799    0.9961901     2.273699 -0.001678979      17635.4
        8800    0.9955957     2.271823 -0.001481231     17638.21
        8801    0.9952761     2.270396  -0.00139212     17640.03
        8802    0.9950847     2.269179  -0.00110913     17642.88
        8803    0.9950405      2.26813 -0.0009044425     17645.09
        8804    0.9950586     2.267386 -0.0008509363     17649.16
        8805     0.995135     2.266778 -0.0007312849     17653.06
        8806    0.9949659     2.265775 -0.0007132806     17655.54
        8807     0.994882     2.265205 -0.000666333     17658.06
        8808    0.9948872     2.264533 -0.0005483521     17661.12
        8809     0.995005     2.264113 -0.0005455777     17663.96
        8810    0.9953844     2.263582 -0.0005433693     17667.68
        8811     0.995169     2.263023 -0.0005660813     17669.84
        8812    0.9949563      2.26236 -0.0005747475     17672.65
        8813    0.9947214     2.261848 -0.0005334955     17672.96
        8814    0.9947056     2.261283 -0.0005261484     17676.39
        8815    0.9945666     2.260889 -0.0006341016     17680.77
        8816    0.9945727     2.260255 -0.0007165447     17684.11
        8817     0.994846     2.259312 -0.0007641556     17687.49
        8818    0.9951202     2.258417 -0.0009511982     17690.01
        8819    0.9951676     2.257832 -0.0009361155     17692.24
        8820    0.9949997     2.256451 -0.001043511      17693.8
        8821       0.9949     2.255567 -0.001202785     17694.24
        8822    0.9951638     2.254243 -0.001251178     17695.11
        8823    0.9953764     2.253021 -0.001393108     17694.17
        8824    0.9953198     2.251446   -0.0014282      17693.5
        8825    0.9951921     2.249995 -0.001584657     17692.68
        8826    0.9949072      2.24853 -0.001683963     17690.06
        8827    0.9948174     2.246683 -0.001697954     17685.49
        8828      0.99517      2.24471 -0.001872184      17677.4
        8829    0.9956717     2.243203 -0.001950959     17658.65
        8830    0.9967082     2.241041 -0.001671763     17611.08
        8831    0.9989436     2.238879 -0.001520529      17468.2
        8832    0.9999006     2.238023 -0.001634935     17207.73
        8833    0.9957511     2.237121 -0.001198742     17206.33
        8834    0.9982764     2.234501 -0.001225818     17327.63
        8835    0.9978488     2.234084 -0.001570098     17231.49
        8836    0.9953929      2.23312 -0.001270968     17461.21
        8837    0.9974133     2.230841 -0.001502913     17691.21
        8838    0.9980971     2.229418 -0.001538074     17745.41
        8839    0.9982906     2.228072 -0.001258656     17759.18
        8840    0.9985226     2.226967 -0.001170198     17765.26
        8841    0.9988434     2.225806  -0.00114784     17767.92
        8842    0.9992036     2.224737 -0.001088137     17770.87
        8843    0.9994857     2.223481 -0.001069198     17774.42
        8844     0.999594     2.222615 -0.001054813     17776.76
        8845    0.9997656     2.221529 -0.001080766     17778.67
        8846      1.00005     2.220518 -0.001104228      17780.7
        8847     1.000378     2.219158  -0.00112027     17783.23
        8848     1.000862     2.218198 -0.001140888     17787.23
        8849     1.001424     2.217048 -0.001068508     17791.46
        8850      1.00162     2.215954 -0.001069706     17795.01
        8851     1.001747     2.214884 -0.001014256     17797.03
        8852     1.001872     2.213919 -0.0009597385     17799.52
        8853     1.002169     2.212991 -0.000861326     17801.14
        8854     1.002387     2.212115 -0.0008601393     17803.71
        8855     1.002236     2.211438 -0.0007955799     17806.13
        8856     1.001904     2.210478 -0.0007412298     17808.22
        8857     1.001424     2.209809 -0.0006915325     17809.81
        8858     1.001042      2.20915 -0.0006227937     17811.87
        8859     1.000745     2.208672 -0.0005504834     17815.21
        8860     1.000459     2.207987 -0.0004321351     17819.33
        8861     1.000228     2.207607 -0.0004145532      17825.3
        8862     1.000172     2.207422 -0.0002697618     17831.58
        8863    0.9998569     2.207014 -0.0002712386     17835.49
        8864    0.9989127     2.206908 -0.0002466248     17837.46
        8865    0.9982568     2.206522 -0.0001958552     17838.43
        8866     0.997739     2.206435 -0.000173617     17839.83
        8867    0.9971961     2.206231 -8.644628e-05     17841.21
        8868    0.9964933     2.206214 -8.22645e-05      17843.8
        8869    0.9960016     2.206176 -6.29028e-05     17845.34
        8870    0.9960233     2.206106 -8.442034e-06     17848.84
        8871    0.9958319     2.205979 -3.036476e-05     17851.89
        8872    0.9958205      2.20618 1.908772e-05      17855.3
        8873    0.9959385     2.206055  7.97134e-05     17859.29
        8874    0.9959384     2.206182 7.240517e-05     17862.69
        8875    0.9958922     2.206298 0.0001550452     17865.36
        8876    0.9956928      2.20647 0.0001289322      17868.5
        8877    0.9954404     2.206675 0.0002018768     17869.86
        8878    0.9952998     2.206698 0.0001963043     17871.27
        8879    0.9951863     2.207105 0.0002685774     17873.41
        8880    0.9952409     2.207255 0.0003231936     17876.85
        8881    0.9952838     2.207749 0.0003921908     17880.54
        8882    0.9951208     2.207991 0.0003514648     17883.78
        8883    0.9950224     2.208674  0.000256957     17885.37
        8884    0.9949918     2.208661 0.0003012658     17886.18
        8885    0.9950576     2.208777 0.0001351035     17889.42
        8886    0.9947754     2.209196 0.0001979356     17893.93
        8887    0.9944182     2.209214 0.0002733521     17897.21
        8888    0.9943274     2.209452 0.0001378604     17900.03
        8889     0.994258      2.20987 0.0001613487     17902.45
        8890    0.9941565     2.209747 9.730522e-05     17905.61
        8891    0.9943054      2.20986 -0.0001235691     17909.38
        8892    0.9945526     2.209842 -0.0002049863     17911.48
        8893    0.9946639     2.209376 -0.0003276145     17912.43
        8894    0.9948114     2.208927 -0.0005275406     17915.11
        8895    0.9948217     2.208549 -0.0005570587      17918.3
        8896    0.9950343     2.207732 -0.0006205686     17921.35
        8897    0.9955474     2.207148 -0.0007821996      17923.8
        8898    0.9960771     2.206445 -0.0008472713     17926.96
        8899    0.9961533     2.205421 -0.001092207     17930.09
        8900    0.9961592     2.204342 -0.001198529     17932.62
        8901    0.9961235     2.202779 -0.001406294      17935.3
        8902    0.9961409     2.201651 -0.001502233      17938.6
        8903    0.9963607     2.199795 -0.001633237      17941.3
        8904    0.9965267     2.198333 -0.001739482      17944.4
        8905    0.9965305     2.196246 -0.001699137     17945.84
        8906    0.9962436     2.194693 -0.001779364     17947.02
        8907    0.9957509     2.192999 -0.001674627     17950.06
        8908     0.995212     2.191216 -0.001773296      17953.4
        8909    0.9950379     2.189548 -0.001740638     17956.19
        8910    0.9947863       2.1876 -0.001745542     17958.97
        8911    0.9943736     2.186036 -0.001688699      17963.3
        8912    0.9942531     2.184234 -0.001593066     17966.86
        8913    0.9943288     2.182793 -0.001619476      17969.1
        8914    0.9944551     2.181228 -0.001545867     17970.55
        8915    0.9944439     2.179558 -0.001423507     17972.37
        8916    0.9945932      2.17805 -0.001421352     17974.84
        8917    0.9947764     2.177099 -0.001383417     17976.38
        8918    0.9948959     2.175542 -0.001379876     17978.85
        8919    0.9949427     2.174025 -0.001361971     17982.57
        8920    0.9949627     2.172531 -0.001269554     17985.43
        8921    0.9951504     2.171651 -0.001174971     17988.16
        8922    0.9954491     2.170464  -0.00108957     17990.83
        8923    0.9956534     2.169325 -0.001047444     17994.29
        8924    0.9959184     2.168173 -0.0009640139     17996.61
        8925    0.9961725     2.167461 -0.0009966884     17999.19
        8926    0.9965141     2.166608 -0.000953547     18002.59
        8927    0.9968239     2.165338  -0.00100205     18005.09
        8928    0.9972549     2.164358 -0.001047059     18006.83
        8929    0.9974876     2.163453 -0.0008951194     18008.02
        8930    0.9979081      2.16242 -0.0009376189     18010.33
        8931    0.9982716     2.161758 -0.0009401034      18013.7
        8932    0.9987305     2.160608 -0.0009259252     18017.35
        8933    0.9992781     2.159693 -0.0009469049     18020.07
        8934    0.9994714     2.158716 -0.0008696937     18022.87
        8935    0.9993757      2.15797 -0.0008290678     18023.82
        8936    0.9997395     2.157129 -0.0007182564     18020.48
        8937      1.00053     2.156376 -0.0006765661      17995.6
        8938     1.001108     2.155843 -0.0006128981     17944.24
        8939     1.000883     2.155264 -0.0006882109     17926.82
        8940     1.000765     2.154678 -0.0007665761     17949.83
        8941      1.00091     2.153623 -0.000809286     18002.94
        8942     1.001314     2.152777 -0.0008106737     18025.95
        8943     1.001565     2.152027 -0.0007847509     18033.54
        8944     1.001634     2.151435 -0.000838993     18039.81
        8945     1.001636     2.150484 -0.0008428517     18045.53
        8946     1.001422     2.149421 -0.0008276098     18049.17
        8947     1.001427     2.148655 -0.0008315881     18053.27
        8948     1.001438     2.148124 -0.0007752818     18056.39
        8949     1.001625     2.147158 -0.0007993797     18059.05
        8950     1.001757      2.14632 -0.000942449     18060.79
        8951     1.001774     2.145458 -0.0009268835     18062.95
        8952     1.002001     2.144355 -0.0009524849     18065.09
        8953     1.002092      2.14345 -0.0009202398     18066.92
        8954      1.00224      2.14251 -0.0009015433     18070.49
        8955      1.00242     2.141777 -0.0008647697      18074.4
        8956      1.00249     2.140748 -0.0008101648     18075.54
        8957     1.002258     2.139991 -0.0009061648     18076.48
        8958     1.002029     2.139269 -0.0008877036     18078.95
        8959     1.001928     2.138152 -0.0009235712     18081.27
        8960     1.001973     2.137198 -0.0008809402     18082.79
        8961     1.001982     2.136297 -0.0008337563     18085.14
        8962     1.001673     2.135745 -0.000929907     18088.72
        8963     1.001058     2.134817 -0.0009254935     18090.41
        8964      1.00053     2.133478 -0.001052595     18093.99
        8965     1.000339     2.132595 -0.001036499     18098.89
        8966    0.9998611     2.131535 -0.000933999     18101.33
        8967    0.9996823     2.130671 -0.001014962     18103.32
        8968    0.9998624     2.129742 -0.000962903     18105.14
        8969     1.000045     2.128535 -0.0009625384     18106.36
        8970     1.000231     2.127683 -0.001024095     18108.05
        8971     1.000386     2.126821 -0.0009504117     18111.65
        8972     1.000606     2.125646 -0.0008976633     18116.55
        8973     1.000569     2.124734 -0.0009674403     18119.73
        8974     1.000783     2.124093 -0.000853894     18122.11
        8975     1.000854     2.122951 -0.0008621476     18123.72
        8976     1.000875      2.12223 -0.0009211582     18125.94
        8977     1.000591     2.121285 -0.0008195662      18127.4
        8978     1.000291     2.120408 -0.0007791917     18128.65
        8979     1.000023     2.119673 -0.0007687328     18130.21
        8980    0.9998017     2.119113 -0.0007161966     18132.11
        8981    0.9998441      2.11821 -0.0007643204     18133.64
        8982     1.000096     2.117543 -0.0007268167     18134.95
        8983     1.000053     2.116616 -0.0006703139     18135.71
        8984    0.9998434     2.116206 -0.0006590219     18137.28
        8985    0.9996497     2.115529 -0.0006386853     18139.95
        8986    0.9994012     2.114907 -0.0006971502     18142.14
        8987    0.9990539     2.114061 -0.0006922999     18144.47
        8988    0.9986829     2.113417 -0.0006564495     18145.68
        8989    0.9986283      2.11276 -0.0005783178     18147.83
        8990    0.9987043     2.112281 -0.0005997051     18150.55
        8991    0.9987743     2.111748 -0.0005051415     18151.17
        8992     0.998814     2.111019 -0.0005356487     18151.61
        8993    0.9990258     2.110739 -0.0005097054     18153.59
        8994    0.9996178     2.110139 -0.0004552303     18155.59
        8995     1.000205     2.109709 -0.0005528758     18158.22
        8996     1.000438     2.109198 -0.0004750943     18160.99
        8997     1.000399     2.108528 -0.0005802663     18163.93
        8998     1.000016     2.108238 -0.0005104857     18165.96
        8999    0.9997405     2.107388 -0.0004466744     18167.53
        9000    0.9994922     2.107156 -0.0005001353     18169.07
        9001    0.9992633     2.106741 -0.0004544159     18171.72
        9002    0.9991238     2.106238 -0.0004811554      18174.8
        9003    0.9990415      2.10557 -0.0005163251     18177.74
        9004    0.9990046     2.105231 -0.0005447945     18180.98
        9005    0.9990193     2.104676 -0.0004930736     18184.18
        9006    0.9990383     2.104059 -0.0005307852     18186.03
        9007    0.9991271     2.103598 -0.0004774897     18188.82
        9008    0.9992296     2.103108 -0.0005190216     18192.34
        9009    0.9992062     2.102766 -0.0004970504     18194.03
        9010    0.9989649     2.101983 -0.0004646053     18194.35
        9011    0.9991225      2.10161 -0.0005173521     18196.77
        9012    0.9991957      2.10125 -0.0004305976     18197.73
        9013    0.9993656     2.100696 -0.0004134841     18199.56
        9014    0.9996754      2.10026 -0.0004133282     18202.26
        9015    0.9998491     2.099956  -0.00041657     18204.63
        9016    0.9997754     2.099596  -0.00045091     18207.89
        9017    0.9994114      2.09903 -0.0004532287     18210.11
        9018    0.9987804     2.098457 -0.0005002832     18211.84
        9019    0.9982515     2.098143 -0.0005099144     18215.38
        9020    0.9977671     2.097595 -0.0004795251     18218.68
        9021    0.9974859      2.09699 -0.0005737188     18221.44
        9022    0.9973468     2.096538 -0.0006202053     18224.44
        9023     0.997425     2.095848 -0.0006076724      18226.5
        9024    0.9978389     2.095114 -0.0006176557     18229.47
        9025    0.9982631      2.09456 -0.0005962366     18230.71
        9026    0.9985497     2.094068 -0.0005922951     18232.66
        9027    0.9987188     2.093463 -0.0006095708     18235.33
        9028    0.9990874     2.092745 -0.0006087213     18238.55
        9029    0.9994399     2.092121 -0.0006787886     18241.66
        9030    0.9995504     2.091633 -0.0007452697     18243.88
        9031    0.9995794     2.090748 -0.0007235708     18245.53
        9032    0.9995122     2.089764 -0.0007946976     18246.86
        9033    0.9993657     2.089227 -0.0007652448      18249.2
        9034    0.9990302     2.088454 -0.0006926894     18250.96
        9035    0.9989373     2.087687 -0.0008215825     18254.07
        9036    0.9988916     2.086993 -0.0007801256     18256.91
        9037    0.9988868     2.085941 -0.0008111425     18259.58
        9038    0.9987344     2.085334 -0.0007919397     18261.03
        9039    0.9986712     2.084442 -0.0007356478      18260.8
        9040    0.9988296     2.083826 -0.0007614694     18261.56
        9041    0.9992456     2.082998 -0.0007741743     18263.57
        9042    0.9997726     2.082288 -0.0008019198     18265.75
        9043     1.000073     2.081345 -0.0007583189      18267.8
        9044     1.000065     2.080618 -0.0007758272     18270.94
        9045    0.9997374     2.079965 -0.0007487418     18274.51
        9046    0.9994303     2.079184 -0.0007948395     18277.08
        9047    0.9993052     2.078351 -0.0009109827      18279.7
        9048    0.9991539     2.077439 -0.0009231094     18282.47
        9049    0.9992407     2.076321 -0.0008685269     18283.63
        9050    0.9991559     2.075492 -0.0009163998     18283.65
        9051    0.9989805     2.074876 -0.0008357879     18284.89
        9052    0.9990577     2.073773 -0.000866507     18288.34
        9053    0.9992152     2.072978 -0.0009166394     18291.87
        9054    0.9991476     2.072026 -0.0008755182     18294.16
        9055    0.9992024      2.07121 -0.0009359901      18296.9
        9056     0.999263     2.070271 -0.0009211736     18297.38
        9057    0.9992067     2.069234 -0.0009256578        18298
        9058    0.9990985     2.068341 -0.0008712369     18299.12
        9059    0.9991742     2.067507 -0.0008559866     18300.74
        9060    0.9992114     2.066786 -0.0008421013     18302.42
        9061    0.9995193      2.06581 -0.0008572834     18303.31
        9062    0.9999686     2.064973 -0.0009032268     18304.33
        9063     1.000471     2.064078 -0.0008969975     18305.32
        9064     1.000789     2.063173 -0.0008817501     18307.15
        9065     1.000928     2.062222 -0.0008299136     18308.89
        9066     1.000929     2.061446 -0.0007568073     18310.74
        9067      1.00082     2.060758 -0.0007463938     18313.04
        9068     1.000794     2.060146 -0.000751167     18315.81
        9069     1.000879     2.059236 -0.000756659     18318.46
        9070     1.001034     2.058441 -0.0008108574     18321.33
        9071     1.001156     2.057732 -0.000785833     18323.65
        9072     1.001179     2.056902 -0.0008098334     18325.67
        9073     1.001322     2.056093 -0.0008554975     18327.87
        9074     1.001587     2.055202 -0.0008136979     18329.61
        9075     1.001842      2.05431 -0.0007974654     18331.89
        9076     1.002082     2.053648 -0.0007662965     18334.29
        9077     1.002207     2.052903 -0.0006601386     18336.16
        9078     1.002038     2.052137 -0.0006999434     18337.78
        9079     1.001733     2.051669 -0.0008032802     18339.21
        9080     1.001736     2.050848 -0.0008241692     18340.72
        9081     1.001592      2.04969 -0.0008987503     18341.15
        9082     1.001408      2.04884 -0.0008766686     18339.94
        9083     1.001328     2.048074 -0.0007985978     18339.18
        9084     1.001413     2.047341 -0.000819853     18335.82
        9085     1.001687     2.046496 -0.0008965614     18321.91
        9086     1.001778     2.045561 -0.000902022     18296.46
        9087     1.001689     2.044488 -0.000876022      18278.1
        9088     1.001491     2.043733 -0.0008115277     18271.66
        9089     1.001385     2.042992 -0.0007187681     18264.88
        9090     1.001382     2.042314 -0.0007716906     18239.11
        9091     1.001329     2.041613 -0.0008697621     18187.75
        9092     1.001476     2.040646 -0.000703549     18143.31
        9093     1.002316     2.039512 -0.0007486822     18054.75
        9094    0.9999475       2.0395 -0.0007959482     18044.88
        9095     1.000232     2.038618 -0.0007236116     18198.23
        9096     1.001984     2.037462 -0.0007805656     18214.64
        9097     1.002843     2.036618 -0.0007541786     18093.26
        9098      1.00162     2.036378 -0.0006886098     18085.48
        9099     1.001415     2.035601 -0.0007046492     18189.72
        9100     1.001792     2.034708 -0.0008876891     18269.84
        9101     1.001749     2.033799 -0.000826625     18287.95
        9102     1.001409     2.032827 -0.0007344592     18308.31
        9103     1.001081     2.032295 -0.0007764913     18327.93
        9104     1.000695      2.03177 -0.0007262848     18339.44
        9105     1.000366     2.030693 -0.0007647113      18347.5
        9106    0.9999259     2.029922 -0.0008193589     18358.21
        9107     0.999593     2.029236 -0.000768729     18374.41
        9108    0.9993711     2.028493 -0.000733111     18391.03
        9109    0.9993462     2.027619 -0.0008720764     18400.65
        9110    0.9995382      2.02699 -0.0008384351      18406.8
        9111    0.9998691     2.025748 -0.0008051299      18411.4
        9112     1.000122     2.025139 -0.0008352555     18413.56
        9113     1.000422     2.024398 -0.0006600217     18415.74
        9114     1.000713     2.023649 -0.0007251258     18419.02
        9115      1.00094     2.023108 -0.0007664188     18422.91
        9116     1.001244     2.022238 -0.0008103798     18427.45
        9117     1.001235     2.021332 -0.0008182101     18431.02
        9118     1.001128     2.020407 -0.0007690903     18433.34
        9119     1.001177     2.019835 -0.0007966626     18435.45
        9120     1.001193     2.019162 -0.0006819995     18436.35
        9121     1.001229     2.018146 -0.0007039914     18437.57
        9122     1.001153     2.017679 -0.000744039     18438.36
        9123     1.001061     2.017019 -0.0006802415     18438.59
        9124      1.00093     2.016186 -0.0007434249     18440.51
        9125     1.000549     2.015425 -0.0007720425     18443.87
        9126      1.00034     2.014705 -0.0007033505     18447.89
        9127     1.000053     2.013931 -0.0006819142     18449.78
        9128    0.9999608     2.013373 -0.0006350861     18451.68
        9129    0.9998747     2.012697 -0.0006469071     18453.97
        9130    0.9998787     2.012165 -0.0006524862     18456.33
        9131    0.9999607     2.011343 -0.0006307283     18457.77
        9132    0.9999323     2.010763 -0.0006748585     18458.41
        9133     1.000066     2.010174 -0.0005601266     18460.23
        9134     1.000493     2.009466 -0.0006021936     18462.63
        9135     1.000772     2.009103 -0.0005739048     18465.07
        9136     1.000852     2.008354 -0.0005491512     18466.09
        9137      1.00128     2.007879 -0.0005843208     18467.06
        9138     1.001639     2.007269 -0.0005678729     18467.07
        9139     1.001939     2.006765 -0.0005576071     18467.61
        9140     1.001756     2.006082 -0.0005216353     18468.81
        9141     1.001583     2.005648 -0.0005972157     18471.15
        9142     1.001368     2.005183 -0.0005349206     18473.69
        9143     1.001184     2.004376 -0.0005624808     18476.89
        9144     1.001269     2.003943 -0.0005146193     18479.96
        9145     1.001346     2.003398 -0.0004474617     18482.17
        9146     1.001653     2.003124 -0.0005111659     18484.26
        9147     1.002116     2.002587 -0.0005146647     18486.18
        9148     1.002445     2.001898 -0.0005416528        18487
        9149     1.002643      2.00134 -0.000511717     18488.17
        9150     1.002802     2.000957 -0.0005049331     18489.49
        9151     1.002679      2.00054 -0.0005107715     18490.09
        9152      1.00225     1.999878 -0.0005177046     18490.79
        9153     1.001762     1.999296 -0.0005546653     18492.19
        9154     1.001216     1.998887 -0.0005699075     18493.93
        9155     1.000912     1.998321 -0.0005972649     18496.34
        9156      1.00079     1.997599 -0.0006129636     18497.58
        9157     1.000777     1.996907 -0.0006012945     18498.96
        9158     1.000842     1.996435 -0.0005520106        18501
        9159     1.001079     1.995916 -0.0005308689     18503.45
        9160     1.001274     1.995391 -0.0005817109     18506.05
        9161     1.001398     1.994784 -0.0006112975     18507.98
        9162     1.001594     1.994108 -0.0006264076      18510.7
        9163     1.001627     1.993471 -0.0006463719     18512.75
        9164      1.00175     1.992885 -0.0006513307     18515.86
        9165     1.001583     1.992198 -0.0006982595     18518.38
        9166     1.001462     1.991503 -0.0007414285     18520.03
        9167     1.001622     1.990678 -0.0006421861     18520.69
        9168     1.001938     1.989919 -0.0006166128     18523.91
        9169     1.002128      1.98963 -0.0006216684     18526.79
        9170     1.001997     1.989036 -0.0006129239     18529.62
        9171     1.001883     1.988191 -0.0007405382     18531.64
        9172     1.001536     1.987468 -0.0007860021     18532.16
        9173     1.001288     1.986668 -0.0007144779     18532.36
        9174     1.000927     1.985892 -0.0006708713     18531.76
        9175     1.000956     1.985333 -0.0006195394     18533.63
        9176     1.000989     1.984784 -0.0005929332     18534.71
        9177     1.001142     1.984189 -0.0006166402      18534.9
        9178     1.001316      1.98352 -0.000677376     18534.75
        9179     1.001511     1.982867 -0.0006721695     18534.55
        9180     1.001684     1.982075 -0.0006733441      18535.9
        9181     1.001851     1.981501 -0.0006441923     18537.71
        9182     1.001926     1.980827 -0.0006579047     18538.23
        9183     1.001786      1.98029 -0.0007005726     18538.92
        9184     1.001581     1.979443 -0.0007217112     18540.21
        9185     1.001435     1.978698 -0.000738326     18541.89
        9186     1.001349      1.97794 -0.0006455099     18543.05
        9187     1.001366     1.977336 -0.0006449006     18545.12
        9188     1.001311     1.976861 -0.000624232      18546.7
        9189     1.001373     1.976119 -0.0006226151     18547.86
        9190     1.001307     1.975443 -0.0006642009     18547.96
        9191     1.001185     1.974846 -0.0006347341     18549.08
        9192     1.001188     1.974204 -0.000594062     18551.79
        9193     1.001065      1.97358 -0.000618694     18554.61
        9194     1.000895     1.973067 -0.0006044457     18556.26
        9195     1.000881     1.972371 -0.0006223663     18556.61
        9196     1.001062     1.971786 -0.0006572035     18556.79
        9197     1.001068      1.97109 -0.0006418144     18557.51
        9198     1.001102     1.970438 -0.0006122808      18558.4
        9199     1.001126     1.969804 -0.0005606399     18560.31
        9200     1.001193     1.969337 -0.0006091253     18562.56
        9201      1.00134     1.968848 -0.0006137817     18564.04
        9202      1.00161     1.968002 -0.0006772337     18565.44
        9203     1.001628     1.967349 -0.000706771     18564.98
        9204     1.001621     1.966628 -0.0007015085     18567.41
        9205     1.001745     1.966021 -0.0006954925     18568.97
        9206     1.001813     1.965196 -0.0006934213     18570.34
        9207     1.001958     1.964567 -0.0006974362     18570.95
        9208     1.002257     1.963855 -0.0006813074     18571.91
        9209     1.002523     1.963231 -0.0006831416     18575.01
        9210     1.002574      1.96247 -0.0006947557     18577.85
        9211     1.002624     1.961834 -0.0006472751     18580.32
        9212     1.002704     1.961076 -0.0006607935     18581.75
        9213     1.002892     1.960642 -0.0007009042     18584.17
        9214     1.002913     1.959827 -0.0006412938      18585.2
        9215     1.002878     1.959031 -0.0007467704     18586.28
        9216     1.002744      1.95851 -0.0008099715     18587.75
        9217      1.00294     1.957655 -0.0007222605     18589.66
        9218     1.003111     1.956587 -0.0008099965     18590.21
        9219     1.003238     1.956142 -0.0007417631        18591
        9220     1.003223      1.95527 -0.0006707509     18591.57
        9221     1.003063     1.954688 -0.0007315104        18593
        9222     1.002929     1.953904 -0.0007439665     18594.89
        9223     1.002544     1.953216 -0.0007532481     18596.92
        9224     1.002181     1.952295 -0.0007658746     18597.62
        9225     1.002089     1.951675 -0.000755934     18599.46
        9226     1.002081     1.950841 -0.0006663287     18601.07
        9227     1.002154     1.950192 -0.000678708     18603.31
        9228     1.002105     1.949629 -0.0006572893      18605.8
        9229     1.002248      1.94896 -0.0007419377     18607.04
        9230     1.002331     1.948212 -0.0008126871     18607.45
        9231     1.002317     1.947224 -0.0008211245     18608.49
        9232     1.002135     1.946378 -0.0007711801     18608.68
        9233     1.001819     1.945675 -0.0007055707        18608
        9234     1.001484     1.945127 -0.0006860652     18608.28
        9235      1.00099     1.944402 -0.0006516203     18609.36
        9236     1.000688     1.943634 -0.0006445875     18610.37
        9237     1.000485     1.943069 -0.0006503734        18612
        9238     1.000314     1.942549 -0.0006831191      18612.5
        9239     1.000514       1.9418 -0.0007764762     18613.43
        9240     1.000806     1.940902 -0.000778911     18615.74
        9241     1.001168     1.939963 -0.0007726105     18617.04
        9242     1.001311     1.939433 -0.0007299154     18618.01
        9243     1.001014      1.93871 -0.000648303     18618.16
        9244      1.00081     1.937982 -0.0006986341      18617.5
        9245      1.00069      1.93737 -0.000637407     18616.06
        9246     1.000788     1.936638 -0.0005728902      18614.2
        9247     1.000852      1.93616 -0.0006386465     18610.74
        9248     1.000779     1.935691 -0.0006659409     18600.65
        9249     1.001415     1.934815 -0.0006233243     18558.03
        9250     1.002237     1.933975 -0.0006654426     18443.92
        9251     1.000577     1.933667 -0.0007249796      18383.5
        9252      1.00013     1.933029 -0.0007605797      18497.8
        9253     1.000874     1.931915 -0.0007526707     18557.31
        9254     1.001965     1.930932 -0.0006957812     18486.56
        9255     1.001274     1.930656 -0.0006323929     18402.04
        9256     1.001049     1.930246 -0.0005757662      18495.8
        9257      1.00107     1.929386 -0.0007632522     18592.04
        9258       1.0008     1.928629 -0.0007677706     18637.13
        9259     1.000617     1.927603 -0.0007635034     18647.72
        9260     1.000237     1.927175 -0.0006818628     18650.85
        9261     1.000061     1.926332 -0.0006035484     18654.02
        9262    0.9998245     1.925902 -0.0007136146     18655.36
        9263     1.000058     1.925189 -0.000658772     18657.44
        9264     1.000189      1.92432 -0.0006602082      18660.1
        9265    0.9998924     1.923697 -0.000681252     18660.12
        9266    0.9997715     1.923261 -0.0006765928     18659.54
        9267    0.9998103     1.922464 -0.0006222843     18658.83
        9268    0.9996549     1.921614 -0.0006803859     18659.76
        9269    0.9993305     1.921208 -0.000656953     18661.64
        9270    0.9991662     1.920539 -0.0006464811     18662.44
        9271    0.9991453     1.919836 -0.0006722301     18663.22
        9272    0.9992852     1.919028 -0.0006520652     18665.53
        9273    0.9995836     1.918519 -0.0006292232     18667.84
        9274    0.9995815     1.917931 -0.0005779972     18669.81
        9275    0.9996215     1.917319 -0.0006278477     18669.97
        9276    0.9996298     1.916716 -0.0006319693     18669.09
        9277    0.9998804     1.916007 -0.0006235334     18670.56
        9278     1.000249     1.915403 -0.0006364021      18673.1
        9279     1.000569     1.914825 -0.0006636329     18674.84
        9280     1.000763      1.91417 -0.0006531107     18675.31
        9281     1.001057     1.913353 -0.0006454025     18676.66
        9282     1.001106     1.912791 -0.0006730741     18677.78
        9283     1.001163     1.912244 -0.0005870419     18677.38
        9284     1.001084     1.911478 -0.0005854424     18678.58
        9285     1.000777     1.911005 -0.0005918971     18680.43
        9286     1.000163     1.910449 -0.0005598734     18682.29
        9287    0.9995954     1.909876 -0.0005631609      18683.5
        9288    0.9991493     1.909238 -0.000626359     18684.87
        9289    0.9990349     1.908752 -0.0005697767     18686.13
        9290     0.999169     1.907944 -0.0005775627     18686.62
        9291    0.9992387     1.907597 -0.0005787557     18686.79
        9292    0.9991229     1.906928 -0.0005358473     18687.39
        9293     0.999068     1.906437 -0.0006187621     18688.63
        9294    0.9990801       1.9058 -0.0005225423     18689.58
        9295    0.9991774     1.905122 -0.0005563767     18690.95
        9296    0.9994314     1.904838 -0.0005678415     18692.03
        9297    0.9994975     1.904211 -0.000547507     18693.15
        9298    0.9994645     1.903529 -0.0006589541     18694.45
        9299    0.9995899     1.902932 -0.000606832     18696.47
        9300    0.9998446     1.902202 -0.0006167603     18699.07
        9301    0.9997438     1.901784 -0.0005851515     18700.03
        9302      0.99951     1.901062 -0.0004802647     18701.13
        9303     0.999615     1.900591 -0.0005248698     18701.59
        9304    0.9998789     1.900281 -0.0005226602     18701.05
        9305     1.000145     1.899685 -0.0005251888     18700.35
        9306     1.000479     1.898971 -0.000626775      18701.6
        9307     1.000717     1.898491 -0.0005751553     18703.49
        9308     1.000888     1.897774 -0.000556715      18704.5
        9309     1.000914     1.897384 -0.0005701168     18704.32
        9310     1.000699     1.896744 -0.000535892     18704.42
        9311     1.000614      1.89621 -0.0006106239     18704.93
        9312      1.00073      1.89563 -0.0005581036     18705.06
        9313      1.00121     1.894941 -0.0005805481     18706.09
        9314     1.001377     1.894512 -0.000588579     18707.37
        9315     1.001273     1.893888 -0.0005408517     18708.78
        9316     1.000977     1.893276 -0.0006571237     18709.33
        9317     1.000692     1.892778 -0.0005325865     18711.07
        9318      1.00074     1.891883 -0.0005636292     18714.83
        9319     1.000651     1.891758 -0.000631826     18716.54
        9320     1.000711     1.891022 -0.000534151     18715.24
        9321     1.000855     1.890251 -0.0006409087     18714.31
        9322      1.00077     1.889747 -0.0006687641      18713.4
        9323     1.000696     1.889194 -0.0005769843     18713.92
        9324     1.000848     1.888347 -0.0005824082     18715.22
        9325     1.000944     1.887943 -0.000629503     18716.62
        9326     1.001096     1.887417 -0.0005473953     18718.68
        9327      1.00139     1.886676 -0.0006076849     18720.45
        9328     1.001531     1.886157 -0.0006049898     18721.22
        9329     1.001638     1.885512 -0.0005394866     18723.15
        9330     1.001832     1.884997 -0.0005982304     18724.55
        9331     1.002096     1.884518 -0.0006133389      18725.2
        9332      1.00246     1.883764 -0.0005516398     18724.12
        9333     1.002893     1.883059 -0.0005394403     18723.92
        9334     1.003023     1.882791 -0.000509429      18723.6
        9335     1.002858      1.88236 -0.0005090508     18726.89
        9336     1.002394     1.881726 -0.000579406     18729.09
        9337     1.002161     1.881022 -0.0006633393     18732.36
        9338     1.001911     1.880473 -0.0006613362     18733.71
        9339      1.00179     1.879707 -0.0006445499     18733.11
        9340     1.002043     1.879081 -0.0006048491     18732.05
        9341     1.002417     1.878444 -0.0006163386     18731.51
        9342     1.002776     1.878054 -0.0005823411        18731
        9343     1.003118     1.877241 -0.0005887155     18731.25
        9344     1.003374     1.876752 -0.0006910011     18733.41
        9345     1.003593     1.876089 -0.0006538207     18734.23
        9346     1.003817      1.87529 -0.000641491      18734.9
        9347     1.003677     1.874626 -0.0006417702     18736.42
        9348     1.003624     1.874186 -0.0006327858     18736.57
        9349     1.003969     1.873522 -0.0006120866     18735.77
        9350     1.004261     1.872759 -0.0006462381     18731.57
        9351     1.004239     1.872178 -0.0006114779     18729.11
        9352     1.003833     1.871601  -0.00054859     18731.53
        9353     1.003227     1.871076 -0.0005889807     18733.91
        9354     1.002743     1.870564 -0.0005955525     18735.27
        9355     1.002274     1.869822 -0.0006199624     18737.03
        9356      1.00202     1.869218 -0.000670711     18741.36
        9357     1.001913     1.868597 -0.0006206306     18744.94
        9358     1.001894     1.867881 -0.0005723567     18746.86
        9359     1.001759     1.867339 -0.0006178269     18746.93
        9360     1.001531     1.866929 -0.0005965526     18745.29
        9361     1.001338     1.866125 -0.0006091547     18742.31
        9362     1.001301     1.865495 -0.0006738237     18739.21
        9363      1.00145     1.864903 -0.0006031321     18739.86
        9364     1.001683     1.864234 -0.0006089473     18741.93
        9365     1.002038     1.863713 -0.0005643075     18743.81
        9366     1.002027     1.863059 -0.0005639245     18744.46
        9367     1.001772     1.862646 -0.000575985      18747.7
        9368     1.001512     1.861978 -0.0005724883     18752.33
        9369     1.001503     1.861409 -0.0006261107     18754.73
        9370      1.00148     1.860769 -0.0006305912     18754.82
        9371     1.001616     1.860141 -0.0006007452     18756.36
        9372     1.001504     1.859456 -0.0006095551     18757.64
        9373     1.001441     1.859006 -0.0005999343     18758.61
        9374     1.001489     1.858331  -0.00059538     18757.73
        9375     1.001354     1.857741 -0.0006049961     18756.17
        9376      1.00142     1.857074 -0.0005570404     18756.07
        9377     1.001482     1.856586 -0.0005893769     18757.31
        9378     1.001561     1.856103 -0.0006360787     18758.73
        9379     1.001619     1.855384 -0.0006234492     18760.36
        9380     1.001807      1.85453 -0.0006543145     18761.95
        9381     1.001886     1.854092 -0.0006068982      18762.1
        9382     1.001856     1.853486 -0.0005382815     18762.88
        9383     1.001678     1.852956 -0.0006313123     18763.68
        9384      1.00147     1.852377 -0.0006160098     18764.92
        9385     1.001421     1.851567 -0.0006350916     18765.75
        9386     1.001475     1.851022 -0.0006328405     18767.13
        9387     1.001578     1.850416 -0.0005563952     18767.77
        9388     1.001526     1.849845 -0.0005862629     18768.15
        9389     1.001713     1.849341 -0.0005861329     18768.48
        9390     1.001909     1.848677 -0.0006061434     18767.63
        9391     1.001732     1.848071 -0.0006374003     18767.23
        9392     1.001243     1.847421 -0.0006135643     18764.79
        9393     1.000746     1.846792 -0.0006645011     18763.98
        9394     1.000622     1.846222 -0.0006711699     18764.88
        9395     1.000249     1.845413 -0.0006448066     18765.74
        9396    0.9996732     1.844736 -0.0006698607     18766.99
        9397    0.9992709     1.844212 -0.0006256012      18767.4
        9398     0.999238     1.843543 -0.0005955283     18768.77
        9399    0.9992442     1.842911 -0.0006456878     18770.37
        9400    0.9994074     1.842354 -0.0005999499     18771.03
        9401    0.9995256      1.84163 -0.000580235     18770.68
        9402    0.9998241     1.841143 -0.0006194585     18770.35
        9403     1.000051      1.84059 -0.0005594198     18771.94
        9404     1.000005     1.839876 -0.0005654141     18773.19
        9405     1.000086     1.839392 -0.0006272761     18773.92
        9406     1.000326     1.838882 -0.0005812944     18775.57
        9407     1.000743     1.838081 -0.0005947471     18776.11
        9408     1.001001     1.837551 -0.000641221     18775.11
        9409     1.001167     1.837013 -0.0006027273     18774.84
        9410     1.001126     1.836317 -0.0005668196     18776.55
        9411     1.000751      1.83567 -0.0006428429     18777.14
        9412     1.000434     1.835284 -0.0006189905     18777.04
        9413     1.000481     1.834442 -0.000594506     18779.19
        9414     1.000368     1.833841 -0.0006417347     18779.99
        9415     1.000247     1.833292 -0.0005522861     18780.46
        9416     1.000052     1.832717 -0.0006232454     18781.74
        9417     0.999787     1.832232 -0.0006497398     18780.46
        9418    0.9995467     1.831348 -0.0006571038     18778.75
        9419    0.9994626     1.830693 -0.0006549974     18777.79
        9420    0.9992758     1.830088 -0.0005913486     18777.38
        9421    0.9990767     1.829612 -0.0005529717     18776.67
        9422    0.9989966     1.828982 -0.0005392658     18775.96
        9423    0.9987182     1.828481 -0.0006157369     18774.77
        9424    0.9985874     1.827931 -0.0006629747     18774.88
        9425    0.9985716      1.82715 -0.000654912     18775.51
        9426    0.9987107      1.82633 -0.0006908134     18775.34
        9427    0.9985849     1.825861 -0.0006113859     18775.39
        9428    0.9982564     1.825168 -0.0005522724     18776.07
        9429    0.9980629     1.824704 -0.0005857563     18774.96
        9430    0.9978897     1.824121 -0.0005704109     18775.26
        9431    0.9977415     1.823518 -0.0006182132     18775.56
        9432     0.997524     1.822886 -0.0006504309     18775.95
        9433    0.9973559     1.822231 -0.0006459013      18776.9
        9434     0.997362      1.82152 -0.0006264903      18776.9
        9435    0.9974331     1.820935 -0.0005974893     18777.05
        9436    0.9974562      1.82038 -0.0005859537     18777.24
        9437    0.9974825     1.819841 -0.0006054602     18776.79
        9438    0.9977565     1.819176 -0.0006060153     18776.51
        9439     0.998054     1.818513 -0.000623505     18776.26
        9440    0.9983201     1.817956 -0.0006328252     18776.26
        9441    0.9983448     1.817347 -0.0006050421     18776.53
        9442    0.9984334     1.816644 -0.0006152147     18777.65
        9443    0.9984018     1.816093 -0.0006313274     18775.63
        9444    0.9983613     1.815496 -0.0005636396     18774.82
        9445    0.9986257     1.814822 -0.0005844189     18774.74
        9446    0.9986532      1.81439 -0.0005426398     18774.93
        9447    0.9987206     1.813755 -0.0004830651      18775.7
        9448    0.9988029     1.813325 -0.0005412497     18775.76
        9449    0.9989383      1.81289 -0.0005646449     18775.27
        9450    0.9994293     1.812225 -0.0006251906     18775.07
        9451    0.9995039     1.811497 -0.0006878603     18774.01
        9452    0.9993431     1.810824 -0.0006412635     18774.32
        9453    0.9991623     1.810138 -0.0006146768     18773.75
        9454    0.9992222      1.80966 -0.0005769597     18773.97
        9455    0.9993923     1.809038 -0.0005386115     18773.59
        9456    0.9996736     1.808516 -0.0005783304     18772.93
        9457    0.9999265     1.807984 -0.0005551826      18771.4
        9458     1.000075     1.807347 -0.0006266521     18771.18
        9459    0.9999145     1.806817 -0.0006544764     18770.47
        9460    0.9997472      1.80601 -0.0005728858     18771.38
        9461    0.9997545     1.805366 -0.000619977     18772.03
        9462     0.999881     1.805055 -0.0004883444     18774.09
        9463    0.9996903     1.804337 -0.0004999395      18774.9
        9464    0.9992474     1.804056 -0.0005543167     18775.78
        9465    0.9988478     1.803366 -0.000544716      18776.8
        9466     0.998273     1.802838 -0.0006181367     18777.63
        9467    0.9978065     1.802158 -0.0006181181     18777.28
        9468    0.9974776     1.801584 -0.0006225373      18776.4
        9469     0.997474     1.800894 -0.0005548692     18776.94
        9470    0.9974462     1.800348 -0.0005381424     18776.57
        9471    0.9975623     1.799939 -0.0005037925     18776.13
        9472    0.9976005     1.799431 -0.0004795983     18774.69
        9473    0.9975872     1.798878 -0.0005013003     18773.43
        9474    0.9973825     1.798429 -0.000565926     18772.64
        9475    0.9970673     1.797934 -0.0005837045     18771.11
        9476    0.9969363     1.797168 -0.0006230706     18770.26
        9477    0.9967952     1.796544 -0.000602804        18771
        9478    0.9968862     1.795937 -0.0005679926     18770.76
        9479    0.9970609     1.795522 -0.0005523321     18770.34
        9480    0.9974363     1.794896 -0.0004532032     18770.08
        9481    0.9973691     1.794334 -0.0005352643     18769.53
        9482    0.9971405     1.794124 -0.0005007875     18768.27
        9483    0.9969351     1.793381 -0.0004858566     18764.63
        9484    0.9967498     1.792892 -0.0006268788     18755.01
        9485    0.9967742     1.792391 -0.0005525517     18736.69
        9486    0.9967984     1.791617 -0.0005816032     18729.15
        9487    0.9969596     1.791171 -0.0006292506     18735.38
        9488      0.99704     1.790566 -0.0005893061     18744.15
        9489    0.9968691     1.789874 -0.0006136672     18752.29
        9490    0.9965359     1.789259 -0.000633691      18753.9
        9491    0.9964616     1.788717 -0.0005754054     18743.72
        9492    0.9966154     1.788031 -0.0005174326     18727.34
        9493    0.9967505     1.787572 -0.0004977617     18725.13
        9494    0.9968423      1.78719 -0.0004975854     18732.44
        9495    0.9965821     1.786725 -0.0005205433     18743.05
        9496    0.9964756     1.786041 -0.0005732608     18752.61
        9497    0.9962607      1.78549 -0.0006317272     18754.51
        9498    0.9958413     1.784897 -0.0005498483     18752.91
        9499    0.9956688     1.784199 -0.000502509     18752.36
        9500    0.9956688     1.784199 -0.000502509     18752.36
