# This file has been produced by extranormal (v 1.0.1 - February 23, 2017)
# O. Roudenko - Synchrotron SOLEIL. Covered by GPL licence.
#Data from HDF File: /nfs/ruche-rock/rock-soleil/com-rock/2022/Projets/20220725_Gilles/op4_cell4_alone/op4_cell4_pos1_close/op4_cell4_pos1_close_0047/op4_cell4_pos1_close_0047_13070.nxs to op4_cell4_pos1_close_0047_13093.nxs
#Time at start=2022-07-28 07:18:54.402
#Time from start (seconds)=64.7316122722
#Sample temperature (C)=nan
# Normalization -------------
# pivot spectrum: LNO_pristine_av1100_00001.txt
# E0=8332.88   Eshift=0.0482872398165
# E0_pivot = 8349.6
# pre-edge params: from E0_pivot-240.0 to E0_pivot-50.0
# pre-edge range: [8109.6, 8299.6]
# post-edge params: from E0_pivot+70.0 to E0_pivot+1155.0
# post-edge range: [8419.6, 9500.0]
# I jump at E0_pivot = 0.79881911915
# shifted energy	normalized	reference	ref.derivative	I0
        8060 0.0006411653     1.039726 -0.0004762733     14959.75
        8065 0.0006411653     1.039726 -0.0004762733     14959.75
        8070 0.0004071537     1.037367 -0.0004609569     14984.82
        8075 -0.0006772145     1.035008 -0.0004550972     15007.71
        8080 0.0003138076     1.032911 -0.0004435926     15030.41
        8085   0.00112788     1.030624 -0.0004424149      15048.3
        8090  0.001760486     1.028496 -0.0004490036     15070.95
        8095  0.001072747      1.02616 -0.0004455255     15095.69
        8100 0.0008615201     1.023931 -0.0004451632     15117.35
        8105 0.0006006395     1.021714 -0.0004379463     15140.49
        8110 7.897806e-05     1.019592 -0.0004398879      15158.7
        8115 -0.0004149215     1.017401 -0.0004370296     15177.66
        8120 0.0005142953     1.015133 -0.0004265187      15199.4
        8125 -0.0006085214     1.012973 -0.0004182798     15220.77
        8130 0.0001098022     1.011062 -0.0004092097     15241.68
        8135  0.001764875     1.009036 -0.0004062223     15263.18
        8140 0.0008481261     1.006949 -0.0004205797     15282.64
        8145 -0.0004125564     1.004849 -0.0004200614     15304.94
        8150  -0.00141854      1.00265 -0.0004164492     15322.15
        8155 -0.001073945     1.000634 -0.0004078059     15344.81
        8160 0.0004700945      0.99862 -0.0004153813     15363.72
        8165  0.001294531    0.9966925 -0.0004218967     15392.02
        8170  0.002743654    0.9943427 -0.0004285388     15409.54
        8175 0.0007959645    0.9921965 -0.0004368496      15433.1
        8180 0.0008101213    0.9900493 -0.0004236233     15452.85
        8185 -0.0004980326    0.9879555 -0.0004189132     15471.92
        8190  -0.00113578    0.9858703 -0.0004069245     15494.29
        8195 -0.0003965323    0.9838182 -0.0004149882     15517.28
        8200 -0.000556545    0.9819108 -0.0004205872     15532.85
        8205 -0.0001635866    0.9796557 -0.0004190386     15557.38
        8210 -0.001270116    0.9774585 -0.0004147928     15574.49
        8215 -0.001366736    0.9754374 -0.0004056607     15595.52
        8220 -0.0007646166    0.9736149 -0.0004028842     15617.58
        8225 -0.0008535168    0.9715425 -0.0004013121      15639.4
        8230 -0.0007481819    0.9694008 -0.0003990544     15659.97
        8235 -0.001055635    0.9674112 -0.0003969057     15676.63
        8240 -0.0007392327    0.9656338 -0.0003894961     15699.16
        8245  0.001229258    0.9636044 -0.0003836582     15721.08
        8250  0.000176528    0.9616109 -0.0003791633     15739.89
        8255 -0.0005304213     0.959738 -0.0003690121     15757.96
        8260 -0.001155023    0.9580506 -0.0003424768     15777.63
        8265 0.0002607938    0.9562242 -0.0003347875     15798.06
        8270  0.001819757    0.9547614 -0.0003350923     15819.49
        8275 -0.0002579502    0.9530423 -0.0003296273      15835.9
        8280  2.83203e-05    0.9513487 -0.0003355428     15855.54
        8285 0.0006272746    0.9496316 -0.0003217813     15867.97
        8290  0.000583483    0.9480505  -0.00029155     15880.34
        8295  0.001258097    0.9466067 -0.0002691146     15892.19
        8300  0.003969076    0.9455177 -0.0002371176     15817.14
      8300.2   0.00396339    0.9455228 -0.0001942776     15808.83
      8300.4  0.003855265    0.9455617 6.069353e-05     15799.78
      8300.6  0.003788878    0.9455786 -7.672833e-05     15792.58
      8300.8  0.003744348    0.9456084 -0.0003461246      15786.7
        8301  0.003767977    0.9454614 -0.0004810693     15782.63
      8301.2    0.0038694    0.9452848 -0.0005852684        15780
      8301.4  0.003902583    0.9451938 -0.0004746137     15778.21
      8301.6   0.00388446    0.9451402 -0.0003156431     15776.62
      8301.8  0.003993979    0.9450817 -0.0003452524     15776.04
        8302  0.004036256    0.9450323 -0.0003662138     15775.53
      8302.2  0.004109798    0.9449176 -0.0004091067     15774.87
      8302.4  0.004140224    0.9448472 -0.0004929706     15773.79
      8302.6  0.004231593    0.9447544 -0.0003687106     15772.57
      8302.8  0.004266527    0.9446379 -0.0002736157     15769.68
        8303  0.004301264    0.9446226 -9.672073e-05     15765.81
      8303.2  0.004365645    0.9446283 0.0001833156     15761.14
      8303.4  0.004380249    0.9446771 0.0001224286     15754.47
      8303.6  0.004472537    0.9447845 6.430078e-06     15746.51
      8303.8  0.004698951    0.9447205 -0.0001085655     15736.31
        8304  0.004921297    0.9446335 -0.0003645071     15722.85
      8304.2  0.005161741    0.9445902 -0.000459378     15705.82
      8304.4   0.00544842    0.9444929 -0.000593887     15683.38
      8304.6  0.005869884     0.944353 -0.000585795     15653.76
      8304.8  0.006470833    0.9441584 -0.0005644366     15615.96
        8305  0.007016244    0.9441216 -0.0004306862     15566.61
      8305.2  0.007618906    0.9440414 -0.0001862329     15505.36
      8305.4  0.008164996    0.9440085 -3.593704e-05     15435.14
      8305.6  0.008647539    0.9440094 0.0001728834     15359.09
      8305.8  0.008693417    0.9440928 0.0003624315     15283.63
        8306  0.008498548    0.9441797 0.0004328117     15216.48
      8306.2  0.008090342    0.9442984 0.0004086848     15161.87
      8306.4  0.007348479    0.9443556 0.0003482115     15123.18
      8306.6  0.006715105    0.9444198  0.000326266     15106.83
      8306.8  0.006104351    0.9444583 0.0004564793     15110.44
        8307  0.005498358    0.9445594 0.0004895675     15130.64
      8307.2  0.005067238    0.9447208 0.0005070989     15164.79
      8307.4  0.004748713    0.9448114 0.0004734974     15208.75
      8307.6  0.004512163    0.9448639 0.0003620483     15259.77
      8307.8  0.004155472    0.9449382  0.000358382     15315.83
        8308  0.003837991    0.9450104 0.0004333687     15374.94
      8308.2  0.003560685    0.9450981  0.000347477     15436.56
      8308.4  0.003459787    0.9452106 0.0002044414     15500.95
      8308.6  0.003349487    0.9452162 3.540835e-05     15566.98
      8308.8  0.003506802     0.945174 -0.0003270941     15630.84
        8309   0.00376721    0.9451265 -0.0006052096     15688.54
      8309.2  0.004114342     0.944949 -0.0008054646     15736.77
      8309.4  0.004654272    0.9447321 -0.0008952394     15772.63
      8309.6  0.005277355    0.9445296 -0.0007827125     15795.88
      8309.8  0.005882306    0.9444103 -0.0005291229     15806.58
        8310  0.006437421    0.9443228 -0.0002621494      15806.1
      8310.2  0.006682391    0.9443088 -9.401087e-05     15799.64
      8310.4  0.006752465    0.9443199  4.91965e-05     15791.84
      8310.6  0.006855247    0.9443351 -3.586126e-05     15786.99
      8310.8  0.006780741    0.9443622 -0.0001355725     15785.55
        8311  0.006623087    0.9442801 -0.0002072349     15788.03
      8311.2  0.006464886    0.9442114 -0.0002834356     15794.29
      8311.4  0.006603862    0.9441693 -0.0003090499     15800.73
      8311.6  0.006910487    0.9441354 -0.0001320466     15801.57
      8311.8   0.00714037    0.9440328 -1.020637e-06     15794.32
        8312  0.007141026    0.9441058  0.000231171     15780.91
      8312.2  0.007114341    0.9441685 0.0005248597     15766.46
      8312.4  0.006983321    0.9443203 0.0004007604     15752.76
      8312.6  0.006822033    0.9444527 0.0003167512     15740.95
      8312.8  0.006719658    0.9444264 0.0001360876     15732.57
        8313  0.006794926    0.9444219 -0.0001509787     15724.89
      8313.2  0.007099473    0.9444292 -0.0003270393     15712.79
      8313.4  0.007687124    0.9443319 -0.0007393276      15688.6
      8313.6  0.008423253    0.9441648 -0.0009332467     15647.98
      8313.8  0.009263025    0.9438304 -0.0007584864     15591.08
        8314   0.01000209    0.9436826 -0.000323624     15517.98
      8314.2   0.01047598    0.9437251   0.00038393     15436.07
      8314.4   0.01062789    0.9439059 0.0009532097     15354.42
      8314.6   0.01047121    0.9441375  0.001313044     15280.21
      8314.8   0.01000119    0.9444452   0.00138395     15221.09
        8315   0.00928543    0.9447756   0.00141048     15182.63
      8315.2  0.008585664     0.945013  0.001339321     15166.19
      8315.4  0.007912771    0.9452659  0.001088124     15172.33
      8315.6  0.007360247    0.9455166 0.0008324116     15196.36
      8315.8  0.006947704    0.9456461 0.0006528776     15230.73
        8316  0.006737753     0.945679   0.00048864     15270.96
      8316.2  0.006496587    0.9457882 0.0005504053     15313.93
      8316.4  0.006295962    0.9459075  0.000779524     15356.79
      8316.6  0.006107836    0.9460864 0.0007749856     15399.84
      8316.8  0.005947845    0.9463026  0.000732989     15444.47
        8317  0.005777907    0.9464082  0.000676521     15489.43
      8317.2  0.005684466    0.9464939 0.0004232924     15534.99
      8317.4  0.005675573    0.9466276  0.000215684     15580.14
      8317.6  0.005765538    0.9466412 -8.178688e-05     15625.11
      8317.8  0.005943936    0.9465808 -0.0003225755     15668.35
        8318  0.006261376    0.9464285 -0.000260065      15709.3
      8318.2  0.006532017    0.9463696 -8.239027e-06     15743.92
      8318.4  0.006818682    0.9464332 0.0004136627     15772.97
      8318.6   0.00711708    0.9465742 0.0005944057      15797.7
      8318.8   0.00738863    0.9467594 0.0005537866     15818.65
        8319  0.007697034    0.9468451 0.0005757723     15836.26
      8319.2  0.007994204    0.9468762 0.0005490448     15850.98
      8319.4  0.008176095    0.9470348 0.0005624799      15863.1
      8319.6  0.008407056    0.9471987 0.0006785001     15873.98
      8319.8  0.008641782    0.9472951 0.0007427952     15883.72
        8320  0.008838401     0.947419 0.0008110913     15892.22
      8320.2  0.009015058     0.947629 0.0008844136     15900.21
      8320.4  0.009091631    0.9478475  0.000822037     15906.74
      8320.6  0.009183811    0.9480026 0.0007883437     15912.26
      8320.8  0.009329514    0.9480766 0.0007714106     15917.69
        8321  0.009347881    0.9482597 0.0007596751     15922.44
      8321.2  0.009351507    0.9484647  0.001127178     15926.83
      8321.4  0.009471535    0.9486103  0.001270116     15931.89
      8321.6  0.009442811    0.9489784  0.001263102     15937.07
      8321.8  0.009391957    0.9492758  0.001417601     15941.94
        8322  0.009433216    0.9494752  0.001143986      15947.1
      8322.2  0.009481832    0.9497444  0.001106805     15953.06
      8322.4  0.009473163    0.9498936  0.001441719      15958.4
      8322.6  0.009395896    0.9501612  0.001599304     15964.07
      8322.8  0.009381586    0.9506285  0.001874446     15970.84
        8323  0.009355455    0.9510239  0.001791149     15978.23
      8323.2  0.009365142    0.9513931  0.001717167     15985.88
      8323.4  0.009498001    0.9515942   0.00165482     15994.15
      8323.6  0.009529253    0.9520023  0.001618802     16001.79
      8323.8  0.009633637    0.9523477  0.001790078     16009.16
        8324  0.009739348    0.9526882  0.001698132     16016.19
      8324.2  0.009843793    0.9530262  0.001722789     16022.55
      8324.4   0.01000646    0.9533608  0.001847689     16027.75
      8324.6   0.01018775     0.953726  0.002133656     16032.28
      8324.8   0.01031735    0.9541663  0.002380766     16035.65
        8325   0.01049878    0.9547331  0.002575978     16039.05
      8325.2   0.01061211    0.9552654  0.002579832      16041.2
      8325.4   0.01074004    0.9557867  0.002732861     16042.84
      8325.6    0.0109525    0.9562302  0.003021685     16044.54
      8325.8    0.0110779    0.9569194  0.003347841      16045.9
        8326    0.0111027    0.9576827  0.003879001     16046.65
      8326.2   0.01118835     0.958465  0.004125477     16047.51
      8326.4   0.01129652    0.9593334  0.004348783     16048.51
      8326.6    0.0114301    0.9602198  0.004526143     16049.66
      8326.8   0.01158928    0.9611618  0.004667154     16050.88
        8327   0.01176169    0.9620859  0.004861038     16052.41
      8327.2   0.01192632    0.9630671  0.005138249     16053.55
      8327.4   0.01208112    0.9641086   0.00549903     16054.29
      8327.6   0.01231311    0.9652724  0.005881151     16055.66
      8327.8   0.01251472    0.9664851  0.006407866     16056.87
        8328    0.0126928     0.967772  0.006974967      16057.7
      8328.2   0.01282806    0.9692349  0.007485757     16058.23
      8328.4   0.01305072    0.9708523  0.007998582     16059.59
      8328.6   0.01331137    0.9724738  0.008567884     16060.86
      8328.8   0.01351113    0.9741709  0.009330919     16061.68
        8329   0.01379766    0.9760892   0.01043654     16063.13
      8329.2   0.01400395    0.9783171   0.01164884      16063.9
      8329.4   0.01424321     0.980823   0.01299631     16064.65
      8329.6    0.0145625      0.98349   0.01466788      16065.2
      8329.8   0.01494422    0.9864863   0.01675314     16066.46
        8330   0.01530756    0.9900514   0.01953553     16067.19
      8330.2   0.01567757    0.9942255   0.02289092     16068.29
      8330.4   0.01606528    0.9991184     0.026865     16069.09
      8330.6   0.01650383     1.004799   0.03183423     16069.64
      8330.8   0.01705415     1.011543   0.03832128     16070.48
        8331   0.01766273     1.019693   0.04647365     16071.32
      8331.2   0.01836699     1.029775   0.05628758        16072
      8331.4   0.01923684     1.041978   0.06755577     16072.73
      8331.6   0.02020351     1.056573   0.08037377      16073.3
      8331.8   0.02136189     1.073737   0.09391096     16073.85
        8332   0.02261661     1.094074    0.1076407     16074.36
      8332.2   0.02411327     1.117107    0.1204966     16074.98
      8332.4   0.02578314     1.142686     0.131066     16075.41
      8332.6   0.02767134     1.170135    0.1393036     16075.27
      8332.8    0.0297857     1.198927    0.1448885     16074.87
        8333   0.03216775      1.22855    0.1477754     16074.95
      8333.2   0.03480004     1.258597    0.1482256     16074.67
      8333.4   0.03761746     1.288355    0.1460461     16074.31
      8333.6   0.04050441     1.317508    0.1425082     16073.89
      8333.8   0.04337144     1.345386    0.1381635     16073.49
        8334   0.04616601     1.372603    0.1330669     16073.14
      8334.2   0.04877828     1.398886    0.1269811     16073.25
      8334.4   0.05094227     1.423961    0.1192468     16072.35
      8334.6   0.05264906     1.446971    0.1107036      16072.5
      8334.8   0.05377312     1.468001    0.1019433     16072.64
        8335    0.0543868     1.487449   0.09348206     16073.13
      8335.2   0.05454632     1.505516   0.08546445      16073.8
      8335.4   0.05427479     1.521757    0.0771349     16073.91
      8335.6      0.05385     1.536372    0.0690445     16074.25
      8335.8   0.05337382     1.549157   0.06198324     16074.42
        8336   0.05298745     1.560751   0.05599404     16074.92
      8336.2   0.05280011     1.571344   0.05132897     16075.75
      8336.4   0.05274935     1.581168   0.04732483     16076.47
      8336.6   0.05294657      1.59022   0.04424287     16077.63
      8336.8   0.05333276     1.598611   0.04193707     16078.39
        8337   0.05395797     1.606738   0.04086137     16079.66
      8337.2   0.05481947     1.614717   0.04114898     16080.82
      8337.4    0.0558803     1.622909   0.04247449     16081.82
      8337.6   0.05717244      1.63153   0.04491371      16083.1
      8337.8   0.05867696     1.640717   0.04798121     16084.36
        8338   0.06031031     1.650648   0.05151218     16085.52
      8338.2   0.06211831     1.661294    0.0553533     16086.75
      8338.4   0.06413131      1.67274   0.05882717     16087.94
      8338.6   0.06617442        1.685    0.0616639     16088.71
      8338.8   0.06846489      1.69771   0.06359206     16089.67
        8339   0.07098456     1.710625   0.06450153     16090.73
      8339.2   0.07365655     1.723614   0.06455897     16091.56
      8339.4   0.07665755     1.736601   0.06386493     16092.38
      8339.6   0.07997519     1.749357   0.06248485     16093.32
      8339.8   0.08343175     1.761717   0.06084203     16093.61
        8340   0.08710096     1.773602    0.0594042     16094.25
      8340.2   0.09126119     1.785275   0.05877486     16095.22
      8340.4   0.09578952     1.796881    0.0579725     16095.45
      8340.6    0.1008492     1.808737   0.05724454     16095.72
      8340.8    0.1063653      1.81998   0.05685013      16096.1
        8341    0.1124504     1.831071   0.05733866     16096.72
      8341.2    0.1189967     1.842361   0.05924218     16097.11
      8341.4     0.126669     1.854608   0.06259251     16097.84
      8341.6    0.1353359     1.867373    0.0663421     16098.53
      8341.8    0.1450033     1.881145   0.06966312     16099.14
        8342    0.1557249     1.895434   0.07355406     16099.53
      8342.2     0.167525     1.910338   0.07799389      16100.2
      8342.4    0.1805791     1.926217   0.08327053     16101.21
      8342.6    0.1952288      1.94354   0.08881411     16101.92
      8342.8    0.2111984     1.962051   0.09411197     16102.52
        8343     0.228041      1.98139   0.09892234     16102.87
      8343.2    0.2458314     2.001506    0.1033584     16103.66
      8343.4    0.2643763     2.022678    0.1075396     16104.03
      8343.6    0.2834789     2.044737    0.1114068     16104.43
      8343.8    0.3030649     2.067421    0.1150146     16105.17
        8344    0.3227269     2.090632    0.1183305     16105.17
      8344.2    0.3425866     2.114689    0.1215887     16105.76
      8344.4    0.3626416     2.139402    0.1242329     16106.27
      8344.6    0.3827701     2.164692     0.125988      16106.4
      8344.8     0.402763     2.190018    0.1277192     16106.75
        8345    0.4228041      2.21548    0.1296812     16107.31
      8345.2    0.4429644     2.241577    0.1316921     16107.93
      8345.4     0.463649     2.268437    0.1340961     16108.48
      8345.6    0.4848318     2.295372    0.1342559     16109.46
      8345.8    0.5063772     2.322757    0.1333863     16110.43
        8346    0.5279184     2.348982    0.1326704     16111.32
      8346.2     0.549854     2.375146    0.1306524      16112.9
      8346.4    0.5726098     2.401508     0.130243     16114.13
      8346.6     0.595839     2.427278    0.1285458     16115.02
      8346.8    0.6199652     2.453176    0.1251275     16115.65
        8347    0.6442731     2.477983    0.1204555     16116.57
      8347.2    0.6683023      2.50161    0.1141868     16117.47
      8347.4    0.6927314     2.523643    0.1077771     16117.71
      8347.6    0.7179667     2.544526    0.1010806     16118.47
      8347.8    0.7434996     2.564205    0.0933024     16118.93
        8348    0.7692498     2.582475   0.08474527     16119.07
      8348.2    0.7945987     2.598285   0.07535826     16119.43
      8348.4    0.8197456     2.612322   0.06580267     16119.66
      8348.6    0.8446904     2.624491   0.05734942     16119.95
      8348.8     0.869701     2.635117   0.04915829     16119.55
        8349     0.894724     2.644164   0.04162482     16119.21
      8349.2    0.9198244     2.651649   0.03410508     16119.32
      8349.4    0.9446817     2.657791   0.02695423     16119.09
      8349.6    0.9699451     2.662401   0.02037055      16118.8
      8349.8     0.995751     2.665728   0.01350632     16118.75
        8350     1.022256     2.667945  0.007778441     16118.72
      8350.2     1.049345     2.668596  0.003478849     16118.86
      8350.4     1.077051     2.668624 -0.0006751281     16118.91
      8350.6     1.105594     2.668511 -0.003714348     16119.09
      8350.8       1.1356     2.667405 -0.006495616     16119.58
        8351     1.166138     2.665625 -0.009161892     16120.22
      8351.2     1.197159     2.663427  -0.01133454     16120.25
      8351.4     1.227851     2.661181  -0.01299592      16120.8
      8351.6     1.259376     2.658337  -0.01470701     16121.53
      8351.8     1.291681     2.655228  -0.01578306     16121.71
        8352     1.324497     2.651661  -0.01617893     16121.56
      8352.2     1.356167     2.648555  -0.01598875     16122.04
      8352.4     1.386943     2.645394  -0.01503791     16122.06
      8352.6     1.416827     2.642437  -0.01414594     16121.66
      8352.8      1.44672     2.639631  -0.01230964     16121.76
        8353     1.475455     2.637238  -0.01069509     16121.89
      8353.2      1.50215     2.635546 -0.007183727     16121.78
      8353.4     1.525893     2.633881 -0.003569443     16122.56
      8353.6     1.546073     2.633884 -0.000112147     16123.14
      8353.8     1.562816     2.634382  0.005412113     16123.56
        8354     1.575612     2.635457  0.009858894     16124.33
      8354.2     1.582973      2.63821   0.01411818     16124.86
      8354.4     1.584898     2.641771   0.01907817     16125.22
      8354.6     1.581663     2.645677   0.02376477     16125.82
      8354.8     1.572886     2.650719   0.02867161      16126.4
        8355     1.559023     2.657222   0.03174182     16127.57
      8355.2     1.540988     2.664709   0.03646242     16128.48
      8355.4     1.519115      2.67107   0.03847566     16129.01
      8355.6     1.493746     2.679889   0.03953197     16129.72
      8355.8     1.465879     2.688003   0.04129957      16130.9
        8356     1.436127     2.696334    0.0403396     16132.14
      8356.2     1.405483      2.70411   0.03963118     16132.84
      8356.4     1.374922     2.712161   0.03803273     16133.52
      8356.6     1.344498     2.719708   0.03652443     16134.46
      8356.8     1.314167      2.72676   0.03328045     16134.49
        8357     1.284652      2.73333   0.02996301     16135.47
      8357.2     1.256666     2.738785   0.02584574     16136.35
      8357.4     1.231243     2.743678   0.02114081     16137.73
      8357.6     1.207945     2.747437   0.01615399      16138.7
      8357.8     1.186643     2.750242   0.01106154     16139.93
        8358     1.166558     2.751708  0.006271978     16140.66
      8358.2     1.148385     2.752527  0.001037706     16141.59
      8358.4     1.132472     2.752454 -0.003317854     16142.39
      8358.6     1.118559     2.751073 -0.007913609     16143.23
      8358.8     1.106459     2.749054  -0.01157213      16143.9
        8359     1.095658     2.746197  -0.01412499     16144.61
      8359.2     1.086177     2.743197  -0.01668106     16145.08
      8359.4     1.078154     2.739773  -0.01855903     16146.39
      8359.6     1.071247     2.735709  -0.02078504     16146.56
      8359.8     1.065582     2.731349  -0.02186421     16146.98
        8360     1.060857     2.726569  -0.02238471     16147.36
      8360.2     1.056787     2.722281  -0.02232324     16148.61
      8360.4     1.053242     2.717802  -0.02132335     16149.16
      8360.6      1.05023     2.713491  -0.02092777     16149.74
      8360.8     1.047585      2.70951  -0.01991068     16150.34
        8361     1.045312     2.705539  -0.01900648     16151.36
      8361.2     1.043202     2.701873  -0.01847589     16152.42
      8361.4     1.041203     2.698286  -0.01804637     16153.17
      8361.6     1.039269     2.694729  -0.01758798     16153.95
      8361.8     1.037511     2.691102  -0.01703578     16154.91
        8362     1.035795     2.687803  -0.01671564     16155.81
      8362.2      1.03405     2.684657  -0.01678961      16156.7
      8362.4     1.032307     2.681357  -0.01689119     16157.48
      8362.6     1.030585      2.67767   -0.0171127     16158.19
      8362.8     1.028881      2.67429  -0.01804367      16159.3
        8363     1.027091     2.670967  -0.01878544     16160.71
      8363.2     1.025219     2.666922  -0.02026928     16161.46
      8363.4      1.02313     2.662642  -0.02169156     16162.09
      8363.6     1.021165     2.658074  -0.02252379     16163.03
      8363.8       1.0192     2.653613  -0.02349177     16163.57
        8364     1.017465     2.648903  -0.02405235     16164.69
      8364.2     1.015836     2.643848  -0.02501226     16166.27
      8364.4     1.014386     2.638832   -0.0249964     16167.35
      8364.6     1.013126     2.633604   -0.0244288     16168.53
      8364.8     1.012033     2.628906  -0.02359534     16169.21
        8365     1.011263     2.624305  -0.02322806     16170.26
      8365.2     1.010745     2.619956  -0.02183824     16171.39
      8365.4     1.010529     2.615021  -0.02068649     16172.51
      8365.6     1.010747     2.611435  -0.02039546     16173.31
      8365.8     1.011404     2.607756  -0.01774768     16174.36
        8366     1.012312      2.60364  -0.01684516     16175.24
      8366.2     1.013735     2.600823  -0.01565825     16176.28
      8366.4     1.015441     2.597959  -0.01328686     16177.49
      8366.6     1.017491      2.59523  -0.01217316     16178.56
      8366.8      1.01978      2.59301  -0.01042654     16179.74
        8367     1.022315     2.591085 -0.009817445     16180.54
      8367.2     1.025051     2.589618  -0.00835295      16181.4
      8367.4     1.027986     2.587376 -0.007351089     16182.86
      8367.6     1.030964     2.586328 -0.006947199     16183.72
      8367.8     1.033986     2.585204 -0.005773334     16184.84
        8368     1.036955      2.58406 -0.005582428     16185.31
      8368.2     1.039859     2.582757 -0.005174193     16186.49
      8368.4     1.042502     2.581862 -0.004958467     16187.82
      8368.6     1.044915     2.581064 -0.004547631     16189.05
      8368.8     1.047146     2.580093 -0.003960765     16190.79
        8369     1.048888     2.579119 -0.004070532     16191.55
      8369.2     1.050202     2.578693 -0.003058804      16192.1
      8369.4      1.05115     2.577808 -0.001911173     16193.22
      8369.6     1.051434     2.577646 -0.0007945513      16193.9
      8369.8       1.0512      2.57759 0.0005935449     16194.68
        8370     1.050476     2.578058  0.001061826     16195.47
      8370.2     1.049322     2.578283  0.002025005     16196.56
      8370.4     1.047557     2.578496  0.002908105     16197.37
      8370.6     1.045351      2.57921  0.003903951     16198.47
      8370.8     1.042814     2.580384  0.005648492     16199.73
        8371     1.039885     2.581406  0.006465284     16200.95
      8371.2     1.036567     2.583014  0.007259849     16201.55
      8371.4      1.03308     2.584382  0.008514622     16202.43
      8371.6     1.029241     2.586192  0.009696859     16203.17
      8371.8     1.025134     2.588218   0.01146289     16203.53
        8372     1.020929     2.590772   0.01261379     16204.22
      8372.2     1.016624     2.593552   0.01368253     16204.91
      8372.4     1.012255     2.596283   0.01473407     16205.75
      8372.6     1.007764     2.599164    0.0153746     16206.39
      8372.8     1.003109     2.602559   0.01642024     16207.24
        8373    0.9984355     2.605852   0.01720276     16207.83
      8373.2      0.99373     2.609419   0.01825198      16208.3
      8373.4    0.9890313     2.612926   0.01935567     16209.37
      8373.6    0.9842282     2.617161   0.02000569     16210.13
      8373.8     0.979347     2.621337    0.0213132     16210.56
        8374    0.9743755     2.625424   0.02183669     16211.24
      8374.2    0.9693366     2.629976   0.02261763      16211.4
      8374.4    0.9642173      2.63463   0.02381791      16211.6
      8374.6    0.9589127     2.639431   0.02484792     16211.85
      8374.8    0.9535389     2.644478   0.02549482     16212.19
        8375     0.948299     2.649855   0.02649205      16213.1
      8375.2    0.9430319     2.655026   0.02704593     16213.42
      8375.4    0.9377927     2.660624   0.02700553     16214.73
      8375.6    0.9323162     2.666115   0.02756683     16215.32
      8375.8    0.9267674     2.671459   0.02751714     16215.84
        8376    0.9212613     2.677079   0.02803406     16216.85
      8376.2    0.9158904     2.682638   0.02843227     16217.56
      8376.4     0.910763     2.688542   0.02894275     16218.26
      8376.6    0.9057716     2.694205   0.02941508     16219.01
      8376.8    0.9007363     2.700234    0.0295751     16219.38
        8377    0.8958523      2.70617   0.02991716      16220.4
      8377.2    0.8912059     2.712202   0.02984743     16221.72
      8377.4     0.886769     2.718139   0.03008797     16223.29
      8377.6    0.8823832     2.724112    0.0300624     16223.82
      8377.8    0.8781816     2.730241   0.03015069     16224.45
        8378     0.874278     2.736252   0.03010726     16225.47
      8378.2    0.8704646     2.742259   0.02970761     16226.43
      8378.4    0.8667458     2.748197   0.02998747        16227
      8378.6    0.8632828     2.754007   0.02959203     16227.85
      8378.8    0.8598899     2.760242   0.02908816     16228.42
        8379    0.8566704     2.765933   0.02849195     16228.86
      8379.2    0.8536773     2.771468   0.02728059      16229.8
      8379.4    0.8507775       2.7768   0.02665604     16230.71
      8379.6    0.8478441     2.782067   0.02596325     16231.34
      8379.8    0.8449907     2.787258   0.02522091     16232.09
        8380    0.8423256     2.792239   0.02368226     16233.37
      8380.2    0.8397239     2.796977   0.02162442     16234.28
      8380.4    0.8372699     2.801012   0.02029449     16235.09
      8380.6    0.8349102     2.804557    0.0187885     16235.85
      8380.8    0.8326207     2.808474   0.01699703     16236.78
        8381    0.8303839     2.812008   0.01621735     16237.69
      8381.2    0.8282431      2.81461   0.01389519     16238.31
      8381.4    0.8262112     2.817531   0.01190402      16239.2
      8381.6    0.8242881      2.81959   0.01066938     16239.87
      8381.8    0.8225056     2.821531  0.008262686     16240.59
        8382    0.8206105     2.823146  0.006626725     16241.12
      8382.2    0.8189491     2.824141    0.0044022     16242.21
      8382.4      0.81741     2.824892  0.001663032     16243.09
      8382.6     0.815836     2.825053 -0.0005374595     16243.18
      8382.8    0.8145635     2.824476 -0.002564078     16244.45
        8383      0.81338     2.823711 -0.004369154      16245.3
      8383.2    0.8123471      2.82284 -0.005751357     16246.52
      8383.4    0.8114193     2.821557 -0.006950806     16247.57
      8383.6    0.8106441     2.819875 -0.008577991      16248.3
      8383.8     0.810026     2.818151  -0.01030509     16249.24
        8384    0.8094777     2.815978   -0.0120284     16249.39
      8384.2    0.8091135     2.813313  -0.01476603     16250.38
      8384.4    0.8089308     2.810252  -0.01603769     16251.58
      8384.6    0.8087897     2.806338  -0.01730558     16251.77
      8384.8    0.8087676     2.803148  -0.01824515     16252.45
        8385    0.8088883     2.799469  -0.01855763     16252.94
      8385.2    0.8091019     2.795656  -0.02040243     16253.14
      8385.4    0.8094684     2.791492  -0.02179194     16253.77
      8385.6    0.8100478     2.786826  -0.02364321      16254.7
      8385.8    0.8106027     2.782035  -0.02485237     16255.17
        8386    0.8114336     2.776741  -0.02593609     16256.58
      8386.2    0.8122603      2.77161  -0.02722633     16256.89
      8386.4    0.8132041     2.766077   -0.0278105     16257.08
      8386.6    0.8142932     2.760254  -0.02895152     16257.67
      8386.8    0.8154614     2.754493  -0.03014424     16258.43
        8387    0.8166723     2.748449  -0.03032669     16258.79
      8387.2    0.8180809     2.741962  -0.03035999     16259.54
      8387.4    0.8195667     2.735993  -0.03048274     16260.36
      8387.6    0.8211508     2.730205  -0.02991303     16261.32
      8387.8    0.8227634     2.724062  -0.03055211     16262.63
        8388    0.8243477     2.718031  -0.03085397     16263.36
      8388.2     0.826126     2.711551  -0.03090893     16264.47
      8388.4    0.8279418     2.705522  -0.03097224     16265.28
      8388.6    0.8296837     2.699335  -0.02995638     16265.74
      8388.8    0.8314548     2.693253  -0.02918309     16266.53
        8389     0.833242     2.687586  -0.02790268     16267.14
      8389.2    0.8350969     2.682175  -0.02689213     16268.32
      8389.4    0.8368798     2.677013  -0.02654886     16268.58
      8389.6     0.838704      2.67174  -0.02574365     16269.16
      8389.8    0.8405568     2.666347  -0.02609856     16270.13
        8390    0.8424521     2.661581  -0.02613188     16270.43
      8390.2    0.8443651     2.656134  -0.02482814     16270.85
      8390.4     0.846237     2.650834   -0.0249044     16271.04
      8390.6    0.8481405     2.646484  -0.02391149     16271.45
      8390.8    0.8499291     2.641657  -0.02258692     16271.79
        8391     0.851741     2.637005  -0.02271901     16272.27
      8391.2    0.8535502     2.632765  -0.02224017     16272.52
      8391.4    0.8555137     2.628309   -0.0218789     16273.34
      8391.6    0.8575299     2.623865  -0.02132633     16274.06
      8391.8    0.8595848     2.619502  -0.02052749     16274.83
        8392    0.8615189     2.615704  -0.01980671     16275.42
      8392.2    0.8635086     2.611887  -0.01874635     16275.89
      8392.4     0.865786     2.608019  -0.01802289     16276.63
      8392.6    0.8680602     2.604505  -0.01758742     16277.44
      8392.8    0.8703109     2.601285   -0.0159972     16277.96
        8393     0.872636     2.597817  -0.01566776     16278.89
      8393.2    0.8750334     2.595222   -0.0151309     16279.75
      8393.4    0.8776052     2.591971  -0.01409208     16280.54
      8393.6    0.8803021     2.589181  -0.01410391      16281.2
      8393.8    0.8830486     2.586544   -0.0129221     16281.97
        8394    0.8859385     2.583939  -0.01230853     16282.85
      8394.2    0.8888165     2.581633  -0.01187315     16283.86
      8394.4    0.8916158     2.579334  -0.01096695     16284.37
      8394.6    0.8946043     2.577045  -0.01028633     16284.93
      8394.8     0.897734     2.575165 -0.009112371     16285.76
        8395    0.9007436     2.573404 -0.007370579     16285.76
      8395.2    0.9039225     2.572044 -0.006031224      16286.1
      8395.4     0.907152     2.571149 -0.004936227     16286.88
      8395.6     0.910379      2.57034 -0.003832057     16287.86
      8395.8    0.9136551     2.569455 -0.002987214        16289
        8396    0.9168888     2.568978 -0.002661172     16289.59
      8396.2    0.9202473     2.568759  -0.00181428     16290.61
      8396.4    0.9235806     2.568211 -0.001160271      16291.7
      8396.6    0.9269202     2.568004 -0.0006722521     16292.35
      8396.8    0.9303297      2.56805 -0.0001244441     16293.36
        8397    0.9336865     2.568221 -8.810144e-05     16293.68
      8397.2    0.9372227     2.568112 -0.0001169266     16294.44
      8397.4    0.9407635     2.567933 -1.598852e-05     16295.38
      8397.6    0.9443228     2.567956 0.0001993315     16295.72
      8397.8    0.9478536     2.568208  0.000334877      16296.1
        8398    0.9512171     2.568271  0.001061646     16296.41
      8398.2    0.9545643     2.568201 0.0005997023     16296.69
      8398.4    0.9579568     2.568806   0.00044044     16297.33
      8398.6     0.961344     2.568688 0.0003604983     16297.71
      8398.8    0.9647104     2.568623 -0.000887829      16298.3
        8399    0.9680587     2.568489 -0.0008852008     16299.31
      8399.2    0.9711997     2.568096 -0.000773509     16299.59
      8399.4    0.9742857      2.56798 -0.001309879     16300.43
      8399.6    0.9772613     2.568005 -0.001614011      16301.4
      8399.8    0.9802096     2.567441 -0.002366412     16301.68
        8400    0.9831192     2.566804 -0.003140943     16302.03
        8401    0.9963529     2.563967 -0.003203354     16305.11
        8402     1.009452     2.560238 -0.002789794     16308.14
        8403     1.022563     2.557173 -0.001869129     16311.71
        8404      1.03638     2.555653 0.0001187237     16316.01
        8405     1.051524     2.556491  0.002398726     16320.03
        8406     1.066294     2.560713  0.004753151     16323.35
        8407     1.079822     2.566768  0.006346373     16328.47
        8408     1.090328     2.574665  0.006848675     16332.51
        8409     1.097813     2.581876  0.006758262     16338.54
        8410     1.101715     2.588107  0.006249376     16342.87
        8411     1.102813     2.593801  0.005949557     16345.99
        8412      1.10093     2.599663  0.006339069     16349.85
        8413     1.096727     2.605675  0.007296544     16354.44
        8414     1.091077     2.613464  0.008772489     16358.91
        8415     1.084262     2.622987   0.01023716      16363.7
        8416     1.077452     2.634753   0.01115299     16367.99
        8417     1.070699     2.646623   0.01131324     16372.28
        8418     1.063928     2.658076   0.01090764     16377.77
        8419     1.057211      2.66824   0.01067483     16382.37
        8420     1.050047     2.678383   0.01048422     16385.33
        8421     1.042521     2.689323   0.01101026     16389.39
        8422      1.03448     2.700013   0.01180304     16392.59
        8423     1.026516     2.712281   0.01254795     16395.32
        8424     1.019149     2.725596   0.01346296     16398.35
        8425     1.013266     2.739514   0.01397192     16399.36
        8426     1.008228     2.753864    0.0141186     16401.87
        8427     1.003734     2.768169   0.01353385     16405.47
        8428     1.000001      2.78207   0.01231799     16409.01
        8429     0.996789      2.79365   0.01017274     16412.68
        8430    0.9936586     2.803136  0.007128351     16415.99
        8431    0.9912731      2.80886  0.003840811     16421.47
        8432    0.9894763     2.810583 0.0001736807     16426.13
        8433    0.9884424     2.809013 -0.003980087     16428.92
        8434    0.9881344     2.803831 -0.007435326     16433.05
        8435    0.9884347      2.79294  -0.01065159     16437.64
        8436    0.9889112     2.780842  -0.01349467     16440.99
        8437    0.9897951     2.766407  -0.01506057     16443.46
        8438    0.9902179     2.749852  -0.01600718     16446.01
        8439    0.9910472     2.732697  -0.01685802     16451.41
        8440    0.9916901     2.716813  -0.01715417     16456.91
        8441    0.9919088     2.698975  -0.01702369     16460.61
        8442    0.9919903     2.681236  -0.01717192        16464
        8443    0.9916637     2.664603  -0.01600342     16468.81
        8444    0.9910324     2.648126  -0.01467815     16473.39
        8445    0.9901336     2.634961  -0.01336349     16476.17
        8446    0.9898682     2.622523  -0.01155382     16478.73
        8447    0.9894466     2.611149  -0.01095546     16481.13
        8448    0.9890599      2.60191  -0.01118723     16485.05
        8449    0.9888532     2.591139  -0.01185538      16489.9
        8450    0.9884629     2.577774  -0.01339044     16494.23
        8451    0.9880895     2.563727  -0.01487565      16498.3
        8452    0.9876379     2.548349  -0.01560669     16502.02
        8453    0.9876707     2.531636   -0.0157533     16506.73
        8454    0.9875425     2.515347  -0.01521423     16509.64
        8455    0.9876755     2.500714  -0.01371989     16512.75
        8456    0.9884954     2.487492  -0.01159442     16517.72
        8457    0.9894993     2.476757 -0.009100052      16521.9
        8458    0.9907677      2.46897 -0.006381344     16525.27
        8459    0.9914805     2.464314 -0.003388266     16528.22
        8460    0.9921523     2.461966  -0.00054113     16532.07
        8461    0.9925394     2.463204  0.002061124     16536.44
        8462     0.992454     2.466805   0.00469393     16540.59
        8463    0.9923156     2.472558  0.006745861     16543.98
        8464    0.9917779     2.480742  0.008407365     16547.05
        8465     0.990769     2.490187  0.009640978     16550.81
        8466    0.9893022     2.500435   0.01047294     16555.51
        8467    0.9871402     2.511122   0.01111121     16558.62
        8468    0.9841771     2.522634   0.01153329      16561.5
        8469    0.9806248     2.534632      0.01143     16564.92
        8470    0.9762163     2.546568   0.01074167     16567.97
        8471    0.9715277     2.556842  0.009392861     16571.23
        8472     0.966712       2.5656  0.007611251     16573.56
        8473    0.9619031     2.572204  0.005785891     16577.06
        8474    0.9578955     2.577013  0.003647965     16581.86
        8475    0.9536844     2.579986  0.001478451     16585.52
        8476    0.9499005     2.580192 -0.0001726476     16588.56
        8477    0.9469857     2.578117  -0.00186007     16590.84
        8478    0.9450808     2.576322 -0.002636094     16593.87
        8479    0.9444324     2.572545 -0.002493862     16597.37
        8480       0.9452     2.569648 -0.002039513     16603.05
        8481    0.9466622     2.568142 -0.0004153372     16608.45
        8482    0.9491997     2.568164  0.001829315     16613.55
        8483    0.9530133     2.570884  0.004648416      16618.7
        8484    0.9573345     2.576965  0.008360803     16622.85
        8485    0.9617287     2.586736   0.01182183     16624.87
        8486    0.9665496     2.601607   0.01535776     16626.45
        8487    0.9718492     2.618171   0.01808913     16629.02
        8488    0.9771941     2.638396   0.01918894     16632.92
        8489    0.9826494     2.659092   0.01984757     16636.26
        8490    0.9879698     2.678363   0.01894727     16640.24
        8491     0.992951     2.697562   0.01743065     16645.69
        8492    0.9972988     2.714185    0.0156162     16649.97
        8493     1.001632     2.728815   0.01305796     16654.82
        8494     1.005575     2.740828   0.01035492     16657.14
        8495     1.009239     2.749794  0.007783582      16659.9
        8496     1.012354     2.755605  0.005473031     16662.53
        8497     1.015115     2.759949   0.00357251      16667.1
        8498     1.017203      2.76272  0.002048202     16669.23
        8499     1.019197     2.764084 0.0006066406     16671.82
        8500     1.020857     2.763798 -0.0007853957     16675.29
        8501     1.022791     2.762376 -0.002527564     16679.94
        8502     1.024661     2.759579  -0.00434096     16685.41
        8503     1.026294     2.753973 -0.006380606     16689.53
        8504     1.027679     2.746434 -0.008812355     16693.75
        8505     1.029199     2.736853  -0.01097438     16697.09
        8506        1.031     2.724329  -0.01291602     16700.51
        8507     1.032687     2.710076  -0.01503077     16703.69
        8508     1.034504      2.69477  -0.01672678     16707.06
        8509      1.03637      2.67673  -0.01846396     16710.31
        8510     1.037967     2.657422  -0.02022665     16714.44
        8511     1.039629      2.63622    -0.021526      16718.2
        8512     1.041373     2.613863  -0.02255899      16723.2
        8513     1.044441     2.590626  -0.02330132     16728.57
        8514     1.049069     2.567186  -0.02390597     16730.73
        8515     1.053591     2.543015  -0.02424109     16715.76
        8516     1.055023     2.518239  -0.02413951     16692.15
        8517     1.056349     2.493662  -0.02340675     16687.02
        8518     1.056936     2.470628  -0.02204679     16687.33
        8519     1.056775     2.449388  -0.01992905     16687.19
        8520     1.056831     2.430052  -0.01747062      16686.2
        8521     1.055265     2.413945  -0.01460079     16689.06
        8522     1.052843     2.400745  -0.01105774     16694.23
        8523     1.050429     2.390984 -0.007621853     16698.22
        8524     1.049149     2.385821 -0.004072413     16705.44
        8525     1.048389     2.383458 -0.0005898543     16708.11
        8526     1.044993     2.384456  0.002475477     16710.33
        8527     1.040703     2.388625  0.005501366     16715.14
        8528     1.037137     2.395723  0.008108086     16722.97
        8529     1.033729     2.405464   0.01013919     16728.94
        8530     1.029544     2.416888   0.01164398     16731.42
        8531     1.025471     2.429182   0.01249587     16732.19
        8532     1.022645     2.442299   0.01298552     16737.33
        8533       1.0184     2.455447   0.01298311     16737.58
        8534     1.012144      2.46883   0.01265047     16741.53
        8535     1.007094     2.481114   0.01197938      16748.5
        8536     1.002346     2.492901   0.01088266     16752.68
        8537    0.9981857     2.503365  0.009962244      16755.7
        8538    0.9955335     2.512361  0.008863556     16752.87
        8539    0.9913802     2.520963   0.00766365     16756.23
        8540     0.986339     2.528355  0.006579572     16765.16
        8541    0.9834149     2.534019  0.005108288     16769.46
        8542      0.98166     2.538679  0.003582158     16771.45
        8543    0.9789618     2.541396  0.002199516     16776.95
        8544    0.9781594     2.542684 0.0008418022     16782.81
        8545    0.9789748     2.542817 -0.0002597162     16786.39
        8546    0.9789588     2.542046  -0.00107582     16788.45
        8547    0.9788264     2.540358 -0.001693411     16791.76
        8548    0.9787612     2.538381 -0.002150327     16795.85
        8549    0.9789259     2.536044 -0.002550849     16801.13
        8550    0.9802269     2.533445  -0.00274707     16805.29
        8551    0.9809167     2.530154 -0.002881424     16811.09
        8552    0.9817339     2.527392 -0.002966725     16812.34
        8553    0.9837167     2.524518 -0.002983935     16815.07
        8554    0.9856635     2.521578 -0.003288073     16819.59
        8555    0.9867952     2.518218 -0.003571261     16822.87
        8556    0.9887755      2.51424 -0.003914823     16827.14
        8557    0.9909527     2.510233 -0.004173471     16830.89
        8558    0.9920003     2.505919 -0.004110674     16836.09
        8559     0.993151     2.501525 -0.004084017     16838.44
        8560    0.9940664     2.497797 -0.003521238     16837.86
        8561    0.9952427     2.493897 -0.002788273     16841.17
        8562    0.9958914     2.491834 -0.001823221     16846.48
        8563    0.9979079     2.490371 -0.0004049803     16851.75
        8564    0.9987846     2.490504  0.001240747     16854.84
        8565    0.9988392     2.492277  0.003138508     16859.21
        8566    0.9987834     2.496797  0.004936566     16865.67
        8567    0.9985381     2.502925  0.006678427     16867.49
        8568    0.9995639     2.510251  0.007980431     16870.01
        8569    0.9991043     2.518991  0.008866159     16873.55
        8570    0.9990199     2.528719  0.009404742        16879
        8571     1.000487      2.53839  0.009484271     16884.76
        8572     1.001841      2.54787   0.00900882      16894.8
        8573     1.002798     2.556928  0.008474382     16899.97
        8574     1.004437     2.564754  0.007676628      16901.8
        8575     1.005927     2.572288  0.006875338     16904.85
        8576     1.006068     2.578576  0.006029796     16910.11
        8577     1.006227     2.584429  0.005050592     16912.49
        8578     1.007088     2.588873  0.004330912     16918.58
        8579     1.008357      2.59249  0.003241032     16923.95
        8580      1.00953       2.5959  0.002357122     16927.64
        8581       1.0109     2.597393  0.001490114     16931.83
        8582      1.01161     2.598302 0.0001449395     16937.35
        8583     1.012029      2.59845 -0.0007748738     16941.42
        8584     1.012981      2.59648 -0.001814838     16944.11
        8585     1.014123     2.594294 -0.003210525     16945.21
        8586     1.014245     2.591042 -0.004182507     16946.44
        8587     1.014615     2.585608 -0.005445969     16947.58
        8588      1.01581     2.579749 -0.006695587        16948
        8589      1.01691      2.57251 -0.007741415     16952.25
        8590     1.018016      2.56426 -0.008973702     16961.37
        8591     1.018043     2.554643  -0.00988677     16964.93
        8592     1.017013     2.543855  -0.01067192      16965.5
        8593     1.017277     2.532963  -0.01123896     16965.32
        8594     1.018023     2.521572   -0.0115588     16970.36
        8595     1.017336     2.509687  -0.01154612     16973.92
        8596     1.016827     2.497619  -0.01148239     16977.15
        8597     1.016252     2.486778  -0.01124477     16978.46
        8598     1.015609     2.475643  -0.01087614     16981.05
        8599     1.014881     2.464708  -0.01061142     16984.82
        8600     1.013158     2.454115  -0.00996175     16991.23
        8601     1.011187     2.444332 -0.009225698     16994.53
        8602     1.009209     2.435796 -0.008205788     16995.09
        8603     1.007158     2.427805 -0.007201796     16998.76
        8604     1.005077     2.421292 -0.006293891     17006.49
        8605     1.003507     2.415525 -0.005405592     17013.73
        8606     1.001203      2.41062  -0.00440003     17015.87
        8607    0.9994183     2.406183 -0.003462223     17021.51
        8608    0.9978381     2.403692 -0.002466771     17025.23
        8609     0.995777     2.401676 -0.001745175     17028.02
        8610    0.9938836     2.400753 -0.001136808     17031.46
        8611    0.9934887     2.399202 -0.0006731848     17036.38
        8612     0.993844     2.399144 -0.0004713115     17041.38
        8613     0.993834     2.398984 -0.000169838     17042.79
        8614    0.9936623     2.398868 -0.000150225     17044.81
        8615    0.9932743     2.398523 -2.542233e-05     17050.43
        8616    0.9932703     2.398544 1.651059e-05     17051.43
        8617     0.993312     2.398882 -4.460499e-05      17052.2
        8618    0.9931199     2.398934 -0.0002270954     17054.25
        8619    0.9931551     2.398344 -0.0002979539     17055.62
        8620    0.9934646     2.397635 -0.0004048623     17055.24
        8621    0.9940236      2.39769 -0.0004645393     17051.14
        8622    0.9955009     2.397314 -0.0001158682     17035.59
        8623    0.9974794     2.396486 -0.0001440766     16938.82
        8624    0.9952822     2.397172 -0.0001034593     16810.28
        8625    0.9961259     2.397114 -9.756118e-05     16822.62
        8626    0.9942436     2.396901 -0.0002775698     16920.11
        8627    0.9960548     2.396096 -0.0001725974     17057.97
        8628    0.9971011     2.396061 -0.0001137662     17090.13
        8629    0.9978003     2.396423 0.0003579362     17099.59
        8630    0.9987967     2.396445 0.0006311717     17104.14
        8631    0.9996233     2.397528 0.0008604468     17111.54
        8632     1.000458     2.398586  0.001294357     17117.26
        8633     1.000749     2.399865  0.001467437     17118.75
        8634      1.00095     2.401623  0.001738371     17121.12
        8635     1.000594     2.403397  0.002008024     17124.88
        8636    0.9999667      2.40554  0.002055246     17131.04
        8637     0.999642     2.407897  0.002204384     17135.98
        8638     1.000062     2.409844  0.002127655     17138.14
        8639     0.999787     2.412215  0.002188463     17139.61
        8640     1.000015      2.41405  0.001982314     17143.95
        8641     1.000181     2.416651  0.001814952     17145.25
        8642     1.000677     2.417773  0.001681212      17146.5
        8643     1.001268     2.419475  0.001425779      17149.2
        8644      1.00197     2.420775   0.00149524     17151.95
        8645     1.002399     2.422354   0.00143397     17155.16
        8646     1.002299     2.423754  0.001181047     17160.67
        8647     1.002326      2.42521  0.001033189     17166.25
        8648     1.002758     2.425499 0.0008156018     17170.89
        8649     1.003229     2.426487  0.000700174     17175.05
        8650     1.003507     2.427017 0.0008845863     17179.68
        8651     1.003599     2.428011 0.0007862954     17185.74
        8652     1.004194     2.429038 0.0008630956     17190.35
        8653     1.005066     2.429632 0.0008408719     17192.92
        8654     1.005854     2.430469  0.000825076     17195.22
        8655     1.005937     2.431375 0.0009077911     17200.14
        8656     1.006415     2.432338 0.0009645929      17204.8
        8657     1.007611     2.433263  0.001028643     17208.09
        8658     1.008537     2.434327  0.001191671     17211.42
        8659      1.00933     2.435489  0.001369218     17215.06
        8660     1.010555     2.437105  0.001419529     17217.22
        8661     1.011494      2.43874   0.00153414     17220.01
        8662     1.011868     2.440005  0.001544197     17223.12
        8663     1.012447     2.441626  0.001498333     17227.61
        8664     1.013557     2.443281  0.001737559     17230.66
        8665     1.014513     2.444734  0.001520926     17231.49
        8666     1.014746     2.446956  0.001302275     17233.09
        8667     1.014733      2.44771  0.001009706     17237.13
        8668     1.014821      2.44849 0.0003966368     17241.45
        8669      1.01538     2.448772 0.0001115792     17245.26
        8670     1.016388     2.448542 -0.0005115212     17249.44
        8671     1.015721     2.448156 -0.0009695325     17253.55
        8672     1.014304     2.446444 -0.001386158     17255.98
        8673     1.013192     2.444894 -0.001976778     17259.39
        8674     1.012931     2.442998 -0.002300209     17263.06
        8675     1.012617     2.440249 -0.002675024     17264.29
        8676     1.011998     2.437244 -0.003148149     17267.13
        8677     1.010774     2.434194 -0.003344296     17271.88
        8678     1.008876     2.430405 -0.003728055     17275.68
        8679      1.00755     2.426872 -0.004097279     17281.74
        8680     1.005961     2.422331  -0.00424696     17283.35
        8681     1.004265     2.417805 -0.004495704     17288.26
        8682     1.002327     2.413417 -0.004539263      17291.7
        8683     1.000932     2.408889 -0.004462598     17294.78
        8684    0.9998005     2.404174 -0.004549033     17296.65
        8685    0.9980792     2.399955 -0.004632455     17297.93
        8686    0.9960179     2.395221 -0.004428187     17300.44
        8687    0.9942539     2.390359 -0.004380848     17303.01
        8688    0.9928315     2.386461 -0.003977222     17305.74
        8689    0.9918034     2.382431 -0.003497931     17308.76
        8690    0.9908767     2.379312 -0.003240688     17312.83
        8691    0.9905982     2.376367 -0.002800985     17316.84
        8692    0.9900005     2.373499 -0.002458108     17319.03
        8693    0.9891679     2.371227 -0.002071177     17322.28
        8694    0.9887039      2.36948 -0.001539073     17327.16
        8695    0.9883486     2.368082 -0.001149856     17331.34
        8696    0.9877995     2.367342 -0.0007700647     17334.78
        8697     0.987651     2.366628 -0.0005477446     17334.67
        8698    0.9878506     2.366399 -0.0003686349     17320.21
        8699     0.987491     2.365891 -0.0003999612     17308.97
        8700    0.9875551     2.365868 -0.0004900208     17315.67
        8701    0.9878037     2.365028 -0.0006650487     17327.79
        8702    0.9883222     2.364439 -0.0008798554     17341.48
        8703    0.9887172     2.363231 -0.001022496     17350.64
        8704    0.9886588     2.362348 -0.001396554     17354.32
        8705    0.9888808     2.360938 -0.001747878     17356.12
        8706    0.9890123     2.358853 -0.002252296     17345.24
        8707    0.9888301      2.35624 -0.002762518     17335.84
        8708     0.989378     2.353339 -0.003104346     17342.19
        8709    0.9897362     2.349888  -0.00337346     17352.15
        8710    0.9897076     2.346436 -0.003685821     17364.14
        8711    0.9894699     2.342746 -0.003837755     17372.83
        8712    0.9892312     2.338596 -0.003858866     17378.88
        8713    0.9890943     2.334537 -0.003800098      17383.8
        8714    0.9891506        2.331 -0.003544976     17386.42
        8715     0.988801     2.327546 -0.003222764     17391.78
        8716    0.9882642     2.324416 -0.002812858      17396.6
        8717    0.9878145     2.321646 -0.002233617     17400.95
        8718    0.9877539     2.319749 -0.001782475     17404.33
        8719     0.987513     2.318611 -0.001244019     17408.81
        8720    0.9873309     2.317286 -0.000934967     17413.63
        8721    0.9874997      2.31667 -0.0008512353     17417.07
        8722      0.98768     2.316009 -0.0005866126     17418.07
        8723    0.9873162     2.315206 -0.0005893228      17419.6
        8724    0.9871736      2.31494 -0.0005276121      17423.7
        8725    0.9875554     2.314313 -0.0004814297     17428.05
        8726    0.9876985     2.313898 -0.0005046083     17430.95
        8727    0.9876535      2.31328 -0.0005251077     17436.19
        8728    0.9878685     2.312921 -0.0004039421      17438.6
        8729    0.9884243     2.312212 -0.0003246463     17441.62
        8730    0.9888728     2.312283 -0.0001678378     17443.77
        8731    0.9896391     2.311982 -8.327868e-05     17446.19
        8732     0.991048      2.31225 -0.0001232874     17449.96
        8733    0.9922333     2.311879 -5.333948e-05     17455.61
        8734    0.9928008      2.31179 -0.0001062307     17460.61
        8735    0.9939489     2.311768 7.546328e-05     17464.36
        8736     0.994506     2.311825 8.837977e-05     17465.93
        8737    0.9949858     2.312181  0.000292098      17469.2
        8738    0.9954425     2.312143 0.0003077974      17473.6
        8739    0.9960852     2.312937 0.0002089396     17479.24
        8740    0.9966344     2.313056 0.0002956051     17482.08
        8741    0.9973783     2.313017 0.0002718941      17482.5
        8742    0.9981971     2.313326 0.0003029251     17484.73
        8743    0.9989161     2.314024  0.000457784      17487.3
        8744    0.9993541     2.314268 0.0004738993     17489.52
        8745    0.9999564     2.314848 0.0003166475     17494.83
        8746     1.000607     2.315221 0.0005160923     17498.12
        8747     1.001065     2.315291 0.0003837273     17498.43
        8748     1.001654     2.316332 0.0004670139     17498.99
        8749     1.002669     2.316383 0.0005579421     17500.84
        8750     1.003564     2.317089 0.0003707784     17505.02
        8751     1.004351     2.317523 0.0004560885     17508.92
        8752     1.004816     2.317815 0.0004660278     17511.01
        8753     1.005011     2.318207 0.0004802634     17515.05
        8754     1.005651     2.318953 0.0004921813     17519.65
        8755     1.006623     2.319444 0.0003791845     17523.39
        8756     1.007619     2.319784 0.0002864883     17526.94
        8757     1.008421     2.319724 0.0003355519     17529.17
        8758     1.009098     2.320099 0.0002604887     17531.06
        8759     1.009121     2.320786 0.0003556681      17532.2
        8760     1.009239     2.320826 0.0002311908     17537.92
        8761     1.009126     2.321147 0.0001474932     17542.99
        8762     1.008452     2.321024 0.0001869329     17547.94
        8763     1.008262     2.321376 3.847399e-05     17551.35
        8764     1.008254     2.321574 0.0001267222      17554.6
        8765     1.007993       2.3213 0.0002014123     17557.56
        8766     1.007623     2.321531 8.621932e-05     17560.92
        8767     1.007181     2.322182 0.0001281375     17562.91
        8768       1.0066     2.321919 0.0001195777     17565.55
        8769     1.006613     2.321813 4.116038e-05     17569.24
        8770     1.006202     2.322009 1.017422e-05      17572.3
        8771     1.004825     2.322346 2.622122e-05     17574.88
        8772     1.003708     2.321959  -0.00010815     17578.07
        8773     1.002703     2.321918 -0.0002715811     17581.84
        8774      1.00137     2.321577 -0.0004713522     17584.43
        8775     1.000678      2.32126 -0.0007133743     17589.19
        8776    0.9998983     2.320074  -0.00090427     17590.96
        8777    0.9993423     2.319064 -0.001000713     17592.51
        8778     0.998881      2.31796 -0.0009552277     17593.98
        8779    0.9982947     2.317257 -0.001114919     17594.53
        8780    0.9978665     2.316253 -0.001250984     17597.94
        8781    0.9977225     2.314605  -0.00150314     17601.57
        8782    0.9981082     2.312956 -0.001728591        17606
        8783    0.9981737     2.311245 -0.001798758     17608.71
        8784    0.9972396     2.309339 -0.002085059     17610.24
        8785    0.9964732      2.30741 -0.002216303     17612.98
        8786    0.9956915     2.304615 -0.002337556     17615.18
        8787    0.9948324     2.302379  -0.00243702     17616.69
        8788     0.994788     2.299989 -0.002437754     17617.97
        8789    0.9949031     2.297662 -0.002647043     17619.88
        8790    0.9956528     2.294864 -0.002614948     17623.99
        8791    0.9959521     2.291791 -0.002630463     17627.62
        8792    0.9961399     2.289529 -0.002589884     17632.21
        8793    0.9961606      2.28714 -0.002439767     17635.72
        8794    0.9963671     2.284505 -0.002322977     17637.94
        8795     0.996676     2.282032 -0.002244474     17640.93
        8796    0.9967841     2.280237 -0.002090438     17643.22
        8797    0.9967373     2.278162 -0.001843868     17643.75
        8798     0.996993     2.276143 -0.001819563     17646.32
        8799    0.9967594     2.274657 -0.001596213     17647.37
        8800    0.9963122     2.272959  -0.00150899      17648.9
        8801    0.9959952     2.271777 -0.001343917     17653.04
        8802    0.9961498     2.270107 -0.001168398     17655.95
        8803    0.9961293     2.269281 -0.001055426     17658.54
        8804    0.9960864     2.268285 -0.0007993439     17662.23
        8805    0.9958506     2.267555 -0.0008003175     17665.15
        8806    0.9955186      2.26691 -0.0006082383     17668.19
        8807    0.9952262      2.26608 -0.0005610504     17671.58
        8808    0.9946374     2.265852 -0.0004782855     17674.19
        8809    0.9947592     2.265311 -0.000489003     17677.56
        8810    0.9950707     2.264997 -0.0006558669     17680.01
        8811    0.9948045     2.264124 -0.0005771419     17683.09
        8812    0.9945128     2.263229 -0.0006173173      17685.6
        8813     0.994115     2.263002 -0.0005489772     17686.38
        8814    0.9940075     2.262527 -0.0005016662     17689.45
        8815    0.9940987     2.261928 -0.0006319331     17694.54
        8816    0.9941579     2.261222 -0.0007543833     17697.09
        8817    0.9944326     2.260475 -0.0008586121     17700.43
        8818    0.9950816      2.25951 -0.0009403058     17703.35
        8819    0.9956865     2.258493 -0.0009504693      17705.9
        8820    0.9955974     2.257461 -0.001043434     17707.14
        8821    0.9952153     2.256673   -0.0011121      17707.8
        8822     0.995303     2.255336 -0.001325431     17709.09
        8823    0.9957861     2.254045 -0.001395025     17708.51
        8824    0.9960759     2.252159  -0.00156667     17707.67
        8825     0.995657     2.251093 -0.001668988     17707.35
        8826    0.9943612     2.249069 -0.001721114     17704.28
        8827    0.9934692     2.247369 -0.001838613      17699.9
        8828    0.9933653     2.245274 -0.001786234     17691.54
        8829    0.9935555     2.243738 -0.002003502     17673.45
        8830    0.9943476     2.241924 -0.001671973     17631.69
        8831    0.9966451     2.239355 -0.001472648     17488.72
        8832    0.9971139     2.238587  -0.00180173     17166.09
        8833    0.9923301     2.237848 -0.001166879     17252.01
        8834    0.9966971     2.234717 -0.001402357     17342.86
        8835    0.9942992     2.234687 -0.001543612     17216.71
        8836    0.9924355     2.232977 -0.001156814     17513.25
        8837    0.9943148     2.231673 -0.001463697     17715.37
        8838    0.9948733      2.23009 -0.001223858     17761.66
        8839    0.9953039     2.228833 -0.001225499     17775.09
        8840    0.9954691     2.228082 -0.001019785     17780.17
        8841    0.9958667     2.226771 -0.001052304     17782.73
        8842    0.9963221     2.226011 -0.001188519     17785.66
        8843    0.9965274     2.224623 -0.001099468     17789.16
        8844    0.9965866     2.223328   -0.0012446     17791.81
        8845    0.9967019     2.222373 -0.001082217     17794.35
        8846    0.9967967     2.221033 -0.0009559727     17795.11
        8847    0.9971007     2.220295 -0.001031174     17797.82
        8848    0.9976543     2.219504 -0.0009760627     17802.17
        8849     0.998078     2.218249 -0.0009937739      17806.4
        8850     0.998471     2.217128  -0.00112199     17809.56
        8851    0.9986643      2.21632  -0.00107479     17812.05
        8852    0.9991775     2.215016 -0.0009541788     17814.28
        8853    0.9998693      2.21395 -0.001040088     17816.51
        8854     1.000114     2.213312 -0.0008058511     17817.29
        8855     1.000293     2.212159 -0.0007940345     17820.26
        8856     1.000494     2.211792 -0.0007938216     17823.75
        8857     1.000451     2.210773 -0.0007227004     17825.85
        8858     1.000501     2.210136 -0.0007601399     17826.88
        8859     1.000694     2.209268 -0.0005494957     17830.72
        8860      1.00091     2.208752 -0.0004553277     17834.79
        8861     1.000812     2.208575 -0.0003454883     17840.67
        8862     1.000902     2.208315 -0.0002264027     17846.44
        8863     1.001361     2.207886 -0.0002432476     17850.58
        8864     1.001194     2.207846 -0.0002988282      17851.2
        8865     1.000252     2.207602 -0.000165369     17852.42
        8866    0.9995628      2.20712 -0.0002346373     17854.57
        8867    0.9991361     2.207225 -0.0001912071     17856.77
        8868     0.998679     2.206908 6.791226e-05     17858.19
        8869    0.9985054     2.206838 -6.375139e-05     17860.44
        8870    0.9987007     2.207391 3.491403e-05     17864.31
        8871     0.999013      2.20697 0.0001429823     17868.17
        8872    0.9987195     2.207047 -3.573075e-05     17871.91
        8873    0.9985218      2.20741 0.0001030906     17875.44
        8874    0.9987981     2.207249  0.000100674     17878.91
        8875    0.9989392     2.207382 6.230849e-05     17881.77
        8876    0.9985793      2.20745 0.0001448996     17884.01
        8877    0.9984015     2.207659 0.0001982721      17886.3
        8878    0.9982145     2.207828 0.0002158162      17887.1
        8879    0.9980331     2.208175 0.0003744977     17889.67
        8880    0.9982178     2.208313 0.0003971569     17894.57
        8881    0.9980326     2.209157 0.0003136354      17897.9
        8882    0.9979166     2.209417 0.0003438049     17900.46
        8883    0.9977175      2.20943 0.0002437787     17901.43
        8884    0.9977593     2.209689 0.0002575636     17902.84
        8885    0.9977718     2.210132 0.0003673748     17905.91
        8886    0.9974049     2.210447 0.0002108851     17909.59
        8887    0.9968919     2.210899 0.0002375358      17913.1
        8888      0.99719     2.210532 6.823225e-05     17916.89
        8889    0.9971934     2.211082 -6.165645e-06     17920.01
        8890    0.9974238      2.21072 -6.167289e-05     17923.29
        8891    0.9973975     2.210875 -0.0001199547     17926.22
        8892    0.9974222     2.210285 -0.0001917338     17927.69
        8893    0.9974599     2.210602 -0.0003050387     17929.44
        8894     0.996949     2.209953 -0.000340677     17931.75
        8895    0.9961904     2.209655 -0.0005157568     17935.01
        8896    0.9961477     2.208923 -0.000663139     17938.62
        8897      0.99584     2.208539 -0.0008297817     17941.09
        8898     0.995339       2.2073 -0.001013911     17944.37
        8899     0.994916     2.206335 -0.001188457     17947.29
        8900     0.994704     2.204867 -0.001213946     17949.29
        8901    0.9947234     2.203785  -0.00134528     17952.89
        8902    0.9950142     2.202445 -0.001397508     17955.53
        8903    0.9950359     2.200954 -0.001502988     17957.78
        8904    0.9952085     2.199277 -0.001625295     17961.05
        8905    0.9953753     2.197773 -0.001698604     17962.91
        8906    0.9953166     2.195943 -0.001791933     17964.51
        8907      0.99504      2.19416 -0.001854909     17966.82
        8908    0.9949604     2.192109 -0.001791234      17970.3
        8909    0.9947604     2.190354 -0.001764519     17972.83
        8910    0.9945227     2.188779 -0.001627959     17975.46
        8911    0.9944674     2.187102 -0.001684786     17980.11
        8912    0.9944769     2.185597 -0.001634305     17984.68
        8913    0.9944939     2.183615 -0.001667255     17987.14
        8914    0.9943492     2.182241 -0.001582647     17988.39
        8915    0.9942153     2.180433 -0.001463148     17989.51
        8916    0.9946525     2.179267 -0.001348905     17992.57
        8917    0.9948177     2.177762 -0.001226704     17993.98
        8918    0.9949921     2.176846 -0.001320796     17996.95
        8919    0.9950585     2.175526 -0.001218008     17999.93
        8920    0.9952033     2.173984 -0.001278512     18003.29
        8921     0.995201      2.17289  -0.00118928     18005.92
        8922    0.9952399     2.171732  -0.00102652     18007.96
        8923    0.9954015     2.170769  -0.00114882      18011.1
        8924    0.9957095     2.169878 -0.001004127     18014.26
        8925     0.995966     2.168295 -0.0009471322     18016.54
        8926    0.9959872     2.167715 -0.001012049     18019.74
        8927    0.9961177      2.16698 -0.0009376841     18022.81
        8928    0.9966041     2.165829 -0.001037013     18023.21
        8929    0.9970624     2.164544 -0.001048215     18024.67
        8930    0.9975234     2.163567 -0.0009656305     18028.15
        8931    0.9979046     2.162788 -0.0009036203     18031.27
        8932    0.9984749     2.161967 -0.0008146217     18035.08
        8933    0.9989589     2.160929 -0.0009117837     18037.67
        8934    0.9991134     2.160309 -0.0008830873     18040.58
        8935    0.9989539      2.15914 -0.0008493948     18042.32
        8936    0.9992878     2.158434 -0.0008729025     18040.01
        8937     1.000227     2.157532 -0.0007700911     18013.27
        8938     1.000231     2.156817 -0.0007350095     17957.07
        8939    0.9994623      2.15606 -0.0007205709        17945
        8940    0.9986739     2.155494 -0.0007475575     17965.34
        8941    0.9984171      2.15465 -0.0007801024     18024.16
        8942    0.9988311     2.153827 -0.0008312406     18044.25
        8943    0.9989397      2.15294 -0.0008143567     18052.24
        8944    0.9988711     2.152169 -0.0007451656     18057.13
        8945    0.9991894     2.151392 -0.0007649815     18063.89
        8946    0.9994539     2.150846 -0.0008476029     18068.36
        8947    0.9996156      2.14988 -0.0007884532     18071.77
        8948    0.9997968     2.148779 -0.0008800878      18075.3
        8949    0.9997944     2.148238 -0.000931346     18077.78
        8950    0.9995692     2.147326 -0.0008565567     18078.38
        8951    0.9996164     2.146154 -0.0009444971     18079.45
        8952    0.9999781     2.145353 -0.0009095996     18083.14
        8953     1.000573      2.14446 -0.0008641896     18085.42
        8954     1.000985     2.143687 -0.0007884487     18089.83
        8955     1.000961     2.142698 -0.0008668456      18093.8
        8956     1.000648     2.142199 -0.0008543004     18093.88
        8957     1.000644     2.140993 -0.000790549     18095.17
        8958     1.000563      2.14027 -0.0009844739     18097.42
        8959     1.000548     2.139535 -0.0009311813     18098.72
        8960     1.001057     2.138261 -0.0009266019     18100.97
        8961      1.00118     2.137268 -0.001006105     18103.62
        8962     1.001328     2.136564 -0.0008780329      18107.6
        8963     1.001389     2.135511 -0.0009200482     18110.07
        8964     1.001447     2.134749 -0.001043154     18112.93
        8965     1.001215     2.133588 -0.001053941     18116.53
        8966     1.001191     2.132391 -0.001000432     18120.31
        8967     1.001175     2.131295 -0.0008992789     18121.62
        8968     1.001455     2.130747 -0.0009025935     18123.65
        8969     1.001642     2.129991 -0.0009000956     18124.88
        8970     1.002004     2.128781  -0.00101101     18126.57
        8971     1.002238     2.127695 -0.001067278     18130.77
        8972     1.002241     2.126703 -0.001033078     18135.62
        8973     1.002548     2.125722 -0.0009643594     18139.19
        8974     1.002648     2.124648 -0.0008854491     18141.09
        8975     1.002461     2.123837 -0.000879488      18142.5
        8976      1.00253     2.123161 -0.0007470539     18145.39
        8977     1.002541     2.122204 -0.0007920894     18146.55
        8978     1.002466      2.12166 -0.0008227453     18148.01
        8979     1.002621     2.120669 -0.0007525416     18149.46
        8980     1.002512      2.11987 -0.0008477286     18151.04
        8981      1.00247     2.119194 -0.0007768434     18153.18
        8982     1.002483     2.118269 -0.0007773942     18152.85
        8983     1.002419     2.117562 -0.0006900385     18154.51
        8984     1.001781     2.116761 -0.0006372147     18155.72
        8985     1.001619     2.116434 -0.0006180289     18158.13
        8986     1.001444      2.11572 -0.0005913553     18160.72
        8987     1.001123     2.115089 -0.0006299241     18162.42
        8988     1.001164     2.114395 -0.000623896     18165.28
        8989     1.001265     2.113914 -0.0005041737     18167.11
        8990     1.001542     2.113225 -0.0004694116     18169.49
        8991     1.001591     2.113073 -0.0005106893     18169.45
        8992     1.001619     2.112518 -0.0004260232     18171.22
        8993     1.001484     2.111871 -0.0005750693     18173.03
        8994     1.001495     2.111521 -0.000566476      18174.8
        8995     1.001613     2.110773 -0.0005386164     18176.77
        8996     1.001753     2.110252 -0.0005654014     18180.59
        8997     1.001802     2.109717 -0.0005021445     18183.02
        8998     1.001693     2.109259 -0.000504066     18184.09
        8999     1.001284     2.108764 -0.000563241     18186.16
        9000      1.00098     2.108236 -0.0005452114     18188.01
        9001     1.000831     2.107464 -0.0005514375     18190.56
        9002     1.000784     2.107078 -0.0005891932     18193.83
        9003      1.00081     2.106558 -0.0005123929     18197.37
        9004     1.000983     2.105879 -0.000522659     18201.24
        9005     1.000872     2.105414 -0.0004542834     18204.06
        9006     1.000785     2.104988 -0.0004561975     18206.09
        9007     1.000897     2.104741 -0.0004781097     18208.16
        9008     1.000991     2.104054 -0.0004807731     18210.46
        9009     1.001152     2.103502 -0.0005385596     18213.28
        9010     1.000921     2.103065 -0.0004444342      18214.8
        9011     1.000655     2.102587 -0.0004831817     18215.88
        9012     1.000473     2.102276 -0.0004600082     18217.37
        9013     1.000505     2.101569 -0.0004288219     18219.86
        9014     1.000768     2.101225 -0.0004878006     18221.89
        9015     1.001234     2.100872 -0.0004726733     18224.79
        9016     1.001832     2.100325 -0.0004904036     18228.28
        9017      1.00148     2.099678 -0.0004863511     18230.02
        9018      1.00058     2.099263 -0.0004974895      18231.4
        9019    0.9996458     2.098926 -0.0003581324     18235.28
        9020    0.9990059     2.098335 -0.0004135029      18239.3
        9021    0.9984119     2.098246 -0.0005017152     18241.36
        9022    0.9982176     2.097609 -0.000540294     18244.46
        9023    0.9980849     2.096919 -0.0006680488     18246.71
        9024    0.9981617     2.096174 -0.0006612756     18249.31
        9025    0.9982602     2.095574 -0.0006518755     18250.79
        9026     0.998269     2.094964 -0.000627949     18252.04
        9027    0.9982864     2.094312 -0.0006679238     18255.09
        9028    0.9983588     2.093662 -0.0006632839     18258.67
        9029    0.9984973     2.092902 -0.0006503751     18261.84
        9030    0.9985644     2.092311 -0.0006824312     18264.47
        9031    0.9987533      2.09171 -0.0006515771     18266.59
        9032    0.9988572     2.090933 -0.0007322054     18267.19
        9033    0.9990559     2.090296 -0.0007372365     18268.71
        9034    0.9992377     2.089382 -0.0007452577     18271.06
        9035    0.9989074     2.088761 -0.0006872321     18273.65
        9036    0.9985891     2.087951 -0.0006949981     18276.56
        9037    0.9985858     2.087547 -0.0006920212     18280.12
        9038    0.9983727     2.086602 -0.0007159946     18280.83
        9039    0.9986435     2.085993 -0.0007985938     18280.82
        9040    0.9989154     2.085088 -0.0008245429     18281.49
        9041    0.9991356     2.084352 -0.0008090759     18284.29
        9042    0.9992736     2.083304 -0.0008899729     18286.33
        9043    0.9992212     2.082757 -0.0008066029     18287.89
        9044    0.9989971     2.081528 -0.0008214989     18291.13
        9045    0.9985446     2.081126 -0.0009363548      18294.4
        9046    0.9982107     2.080018 -0.0008796716     18297.41
        9047    0.9979625     2.079012 -0.000897778        18300
        9048    0.9981153     2.078009 -0.0009120411     18302.93
        9049    0.9982762     2.077535 -0.0008439321     18304.01
        9050     0.998336      2.07637 -0.0008929342     18302.88
        9051    0.9983613     2.075636 -0.0009117909     18304.66
        9052    0.9985503     2.074437 -0.0008848725     18309.21
        9053    0.9988893     2.073888 -0.0008972672     18312.31
        9054    0.9991767      2.07283 -0.0008003218     18315.28
        9055    0.9991854     2.072047 -0.0008548757      18316.5
        9056    0.9992282     2.071236 -0.0008495294     18319.25
        9057    0.9990445     2.070468 -0.0008450555     18319.12
        9058    0.9986748     2.069432 -0.0008819287      18318.9
        9059    0.9988847     2.068666 -0.001006326     18321.85
        9060    0.9992285     2.067708 -0.0008609109      18323.4
        9061    0.9996233     2.066443 -0.0009147671     18322.91
        9062    0.9997534     2.065988 -0.0008362664     18323.63
        9063    0.9998973     2.065007 -0.0006883926      18326.5
        9064    0.9998184     2.064363 -0.0008210827     18327.45
        9065    0.9999983     2.063689 -0.0008146731      18330.5
        9066     0.999778     2.062704 -0.0008419655     18332.51
        9067     0.999499     2.061749 -0.0008231421     18334.32
        9068    0.9992529     2.060995 -0.0008230905     18336.75
        9069    0.9990189     2.060397 -0.0007746788     18339.06
        9070    0.9990129     2.059412 -0.0007412346     18342.29
        9071    0.9990579      2.05865 -0.0008445888     18344.69
        9072    0.9990454      2.05803 -0.000840719     18347.41
        9073    0.9991813     2.057018 -0.000780228     18349.88
        9074    0.9996873     2.056049 -0.0008501218     18351.81
        9075    0.9999534     2.055529 -0.0008156945     18354.16
        9076     1.000297      2.05463 -0.0007217555     18355.84
        9077     1.000824     2.053755 -0.0007444159     18357.91
        9078     1.000989     2.053162 -0.0007995053     18359.91
        9079     1.000883     2.052551 -0.0008106765     18360.55
        9080     1.000896     2.051432 -0.0007997868     18362.48
        9081     1.000988     2.050513 -0.0008272856     18362.36
        9082     1.000796     2.049963 -0.0008239705      18361.7
        9083     1.000861     2.049242 -0.000850899     18360.94
        9084     1.001091     2.048136 -0.0008947881        18358
        9085     1.001665     2.047109 -0.0009767104     18342.86
        9086     1.001582     2.046383 -0.0008458808     18316.44
        9087     1.001531     2.045335 -0.0008347405      18299.9
        9088     1.001426     2.044752 -0.0007323276     18293.47
        9089     1.001632      2.04377 -0.0007377969     18287.36
        9090     1.001954     2.043454 -0.0008867666     18259.31
        9091     1.001969     2.042384 -0.0007779054     18204.49
        9092     1.002655     2.041205 -0.0006438685     18170.13
        9093       1.0035     2.040659 -0.0007307115     18043.83
        9094     1.000866     2.040879 -0.000747037     18072.59
        9095     1.001503     2.039461 -0.0007210675     18239.49
        9096     1.003595     2.038217 -0.0008457839     18237.65
        9097      1.00346     2.037774 -0.000726247     18090.46
        9098     1.002249     2.037496 -0.0006792598     18107.68
        9099     1.002355     2.036556 -0.0007161393     18223.24
        9100      1.00351       2.0355 -0.0008074547      18291.8
        9101     1.003866      2.03491 -0.0008082425     18308.71
        9102     1.003817     2.034266 -0.0007091529     18333.21
        9103     1.003765     2.033323 -0.0007041136     18351.35
        9104     1.003412     2.032664 -0.0007637706     18361.22
        9105     1.002893     2.032093 -0.0007128497     18369.07
        9106     1.002355     2.031211 -0.0007743983     18379.18
        9107     1.001763     2.030472 -0.0008325239     18398.11
        9108     1.001341     2.029566 -0.0008140391     18414.37
        9109      1.00119     2.028763 -0.0008298172     18423.22
        9110     1.001109     2.027954 -0.000811091     18428.55
        9111     1.001053     2.027153 -0.0007885936     18432.54
        9112     1.000946     2.026322 -0.0007653538     18435.55
        9113     1.000811     2.025609 -0.0007664308     18437.57
        9114     1.000825     2.024893 -0.0007037699     18441.02
        9115     1.000693     2.024087 -0.0007072494     18445.11
        9116     1.000588     2.023507 -0.0007789279     18448.74
        9117     1.000602      2.02278 -0.0007554284      18452.9
        9118     1.000602     2.021777 -0.0008501374     18456.36
        9119     1.000499     2.021065 -0.0008949535     18457.25
        9120     1.000804     2.020106 -0.0008513406     18458.84
        9121     1.000904       2.0192 -0.0008662962        18459
        9122     1.001235     2.018372 -0.0008125585     18461.18
        9123     1.001235       2.0176 -0.0006609325     18461.48
        9124     1.001292     2.016856 -0.000606551     18463.78
        9125     1.001066     2.016556 -0.0006766122     18466.87
        9126     1.000785     2.015946 -0.0006358639     18470.18
        9127      1.00065     2.014894 -0.000741834     18472.94
        9128     1.000315     2.014312 -0.0007523691     18474.23
        9129     1.000331     2.013589 -0.0006391261     18477.07
        9130     1.000602     2.012936 -0.000668105     18479.94
        9131      1.00071     2.012337 -0.0006559225     18480.14
        9132     1.000988      2.01164 -0.0006936285     18481.61
        9133     1.001297     2.010965 -0.0005845198     18483.62
        9134     1.001598     2.010162 -0.0007029646      18485.7
        9135     1.001419     2.009999 -0.0005840241     18488.37
        9136     1.001534     2.008828 -0.0005009239     18489.63
        9137     1.001471     2.008629 -0.0006082448     18489.48
        9138      1.00174     2.008158 -0.0004175848     18490.59
        9139     1.002542     2.007566 -0.0005057728     18490.69
        9140     1.003332     2.007158 -0.0005126964      18492.1
        9141     1.003258     2.006606 -0.0004712979     18495.04
        9142     1.003221     2.006107 -0.0004948721     18498.16
        9143     1.002978     2.005681 -0.0005401251     18500.87
        9144     1.002576     2.005178 -0.0005196233     18502.65
        9145     1.002563     2.004446 -0.0005999652     18506.56
        9146     1.002623     2.004029 -0.0006066934     18508.86
        9147     1.002567     2.003281 -0.0005021818     18509.89
        9148     1.002572     2.002751 -0.000538962     18510.75
        9149     1.002731     2.002437 -0.0005114231     18512.97
        9150     1.002595     2.001873 -0.0005101174     18513.24
        9151     1.002208     2.001235 -0.0005141247     18513.44
        9152     1.001834     2.000711 -0.0005101495     18513.82
        9153     1.001586      2.00038 -0.0005381772     18515.44
        9154     1.001269     1.999832 -0.0005196597     18517.57
        9155     1.001223     1.999083 -0.0005590548     18519.61
        9156     1.001188     1.998632 -0.0005289086     18520.49
        9157     1.001001     1.998144 -0.0005264327     18521.98
        9158     1.001147     1.997717 -0.0005954986     18525.05
        9159     1.001437     1.996977 -0.0006338163     18526.61
        9160     1.001607      1.99625 -0.0006370791      18528.5
        9161     1.001994     1.995609 -0.0006102477     18532.07
        9162     1.002234     1.995168 -0.0006076833     18533.46
        9163      1.00257     1.994536 -0.000556801     18536.84
        9164     1.002755      1.99382 -0.0006222105     18540.33
        9165     1.002278     1.993382 -0.0006474875     18542.17
        9166     1.001993      1.99268 -0.000617612     18542.79
        9167     1.002038     1.991946 -0.0007286728     18544.96
        9168     1.001932     1.991349 -0.0007562555     18546.83
        9169     1.001978     1.990467 -0.0007035052     18550.03
        9170      1.00224     1.989655 -0.0007157096     18553.96
        9171     1.002465     1.989132 -0.0006003585     18556.17
        9172     1.002435     1.988486 -0.0006338993     18555.88
        9173     1.002211     1.988066 -0.000668006      18555.5
        9174     1.001995     1.987119 -0.0006642983     18555.39
        9175     1.001978      1.98646 -0.0007796368     18556.86
        9176     1.001826     1.985829 -0.0006726508     18557.67
        9177     1.001834     1.984947 -0.0006952504     18557.82
        9178     1.001862     1.984428 -0.0007312252     18558.52
        9179     1.001842     1.983679 -0.0005747624     18559.05
        9180       1.0019     1.982904 -0.0006373402     18560.53
        9181     1.001642     1.982648 -0.0006325522     18561.47
        9182      1.00133     1.981879 -0.0006579808     18562.78
        9183     1.000918     1.981149 -0.0007551823     18563.21
        9184     1.000646     1.980272 -0.0007026093     18564.18
        9185      1.00068     1.979627 -0.0006592306     18566.75
        9186      1.00064     1.979069 -0.0005882283     18567.18
        9187     1.000638     1.978512 -0.0005310225     18569.64
        9188     1.000335     1.977919 -0.0006486416     18571.14
        9189    0.9999717     1.977503 -0.0006820593     18571.73
        9190    0.9999326     1.976474 -0.0006322833      18571.9
        9191     1.000103     1.975784 -0.0006971045     18573.72
        9192    0.9999929      1.97539 -0.0006480523     18576.44
        9193     1.000037     1.974715 -0.0006274002     18579.26
        9194     1.000009     1.973882 -0.0007203597     18581.18
        9195    0.9998882     1.973274 -0.0007210373     18580.66
        9196      1.00005     1.972509 -0.0006296393     18581.51
        9197     1.000118     1.971831 -0.0006561716     18581.71
        9198      1.00031     1.971363 -0.0006310855     18582.07
        9199     1.000483     1.970649 -0.0006387238     18584.93
        9200     1.000436     1.969984 -0.0006135956     18587.17
        9201     1.000418     1.969276 -0.0006665404     18588.52
        9202     1.000404     1.968909 -0.0006690784     18589.85
        9203     1.000657     1.967983 -0.0006772023     18590.64
        9204     1.000781     1.967308 -0.0006597728        18592
        9205     1.001172     1.966567 -0.0005784525     18593.38
        9206     1.001472      1.96627 -0.0005698281     18594.74
        9207     1.001874     1.965669 -0.0005615674     18595.96
        9208     1.002168     1.965029 -0.0006432952     18596.65
        9209     1.002431     1.964321 -0.0007251389     18600.06
        9210     1.002464     1.963697 -0.0007091392     18602.79
        9211     1.002562     1.962769 -0.000700126     18604.67
        9212     1.002826     1.962192 -0.0007653549     18606.88
        9213     1.003094      1.96152 -0.0007142304     18607.76
        9214     1.003495     1.960635 -0.0007219482     18609.41
        9215     1.003814     1.959912 -0.0007545979     18610.82
        9216     1.003862     1.959304 -0.0006813015     18613.05
        9217     1.004156     1.958502 -0.0006297764     18614.92
        9218     1.004252      1.95791 -0.0007585153     18615.32
        9219     1.003941     1.957393 -0.0006973747     18616.49
        9220     1.003783      1.95627 -0.0007831248     18617.35
        9221     1.003671     1.955712 -0.0008325137     18617.86
        9222      1.00374     1.954777 -0.0006505908     18620.36
        9223     1.003322     1.954063 -0.0006976792     18622.39
        9224     1.002723     1.953668 -0.0007231695     18622.95
        9225     1.002372     1.952921 -0.0007810086     18623.93
        9226      1.00224     1.951885 -0.0007953151     18626.59
        9227      1.00228     1.950939 -0.0007971703     18628.99
        9228     1.002168     1.950487 -0.0007116879      18631.2
        9229     1.001888     1.949733 -0.0006543966     18632.27
        9230     1.001658     1.949038 -0.0007723705     18633.77
        9231     1.001521     1.948321 -0.0006876991     18633.66
        9232     1.001471     1.947397 -0.0007083058     18634.33
        9233     1.001628     1.946982 -0.0007327782     18633.83
        9234     1.002032     1.946205 -0.0006857198     18633.48
        9235      1.00214      1.94539 -0.000715488     18634.19
        9236     1.001937     1.944654 -0.0007530996     18635.52
        9237     1.001665      1.94412 -0.0006934563     18637.32
        9238     1.001289     1.943192 -0.0007048107     18638.26
        9239     1.000997     1.942616 -0.0007976446     18638.85
        9240     1.001058     1.941835 -0.0006775051     18641.15
        9241     1.001083     1.940929 -0.0006984557      18643.8
        9242      1.00078     1.940482 -0.0006923215     18643.39
        9243      1.00078     1.939822 -0.0005865116      18645.2
        9244     1.000811     1.939066 -0.000725711     18644.08
        9245     1.001065     1.938583 -0.0007045436     18642.31
        9246     1.001366      1.93758 -0.0006772442     18641.05
        9247     1.001412     1.937004 -0.0007199183     18637.09
        9248     1.001439     1.936357 -0.0007332065      18628.2
        9249     1.001654     1.935704 -0.0006616705     18590.14
        9250     1.002322     1.934647 -0.0006181881     18442.89
        9251     1.000315     1.934357 -0.0007851274     18410.49
        9252    0.9999778     1.933884 -0.0007340014     18535.04
        9253     1.001187     1.932563 -0.0006690993     18593.97
        9254     1.002586     1.931711 -0.0006973546     18492.83
        9255     1.001179     1.931681 -0.0006062554     18425.17
        9256     1.000956     1.931095 -0.0005223676     18528.11
        9257     1.001235     1.930138 -0.0006901389     18628.12
        9258     1.001173     1.929621 -0.0007754346     18665.65
        9259     1.001045     1.928921 -0.0006362657     18674.04
        9260     1.000968     1.927993 -0.0007111998     18677.06
        9261      1.00072     1.927593 -0.0007526914     18679.64
        9262     1.000807     1.926776 -0.000688479     18682.41
        9263     1.000889      1.92591  -0.00072952     18684.76
        9264     1.000673     1.925239 -0.0006639487     18685.99
        9265     1.000614     1.924675 -0.0006100881     18687.14
        9266     1.000176     1.924121 -0.000595053     18686.09
        9267    0.9999883     1.923469 -0.0006800623     18685.28
        9268    0.9995174     1.922859 -0.0006551352     18686.52
        9269    0.9992918     1.921955 -0.0006420629     18688.23
        9270    0.9993536       1.9215 -0.0006996913     18690.08
        9271    0.9994538     1.920901 -0.0006193059     18690.79
        9272    0.9997958      1.92006 -0.0005958053      18693.6
        9273    0.9998366     1.919478 -0.0006159841     18695.22
        9274     1.000187     1.919117 -0.0005202302     18696.07
        9275     1.000444     1.918437 -0.0005362956     18696.46
        9276     1.000336     1.917979 -0.0006474993      18695.7
        9277     1.000174     1.917332 -0.0006020162     18697.29
        9278     1.000431     1.916527 -0.0006298679     18699.95
        9279     1.000622     1.916029 -0.0006046146     18701.63
        9280     1.000904      1.91546 -0.0006517757     18702.15
        9281     1.000888     1.914914 -0.0006428836     18703.66
        9282     1.000929      1.91392 -0.0006692552     18704.89
        9283     1.000964     1.913458 -0.0006491281     18704.28
        9284     1.001156     1.912783 -0.0005736302     18706.33
        9285     1.000877     1.912317 -0.0006447286     18707.97
        9286     1.000804     1.911625 -0.0006298168     18710.67
        9287      1.00045     1.910879 -0.0007040219     18711.11
        9288    0.9999512     1.910263 -0.0007238571     18712.65
        9289    0.9997184     1.909501 -0.0005877447      18713.9
        9290    0.9995781      1.90873 -0.0006040026      18714.1
        9291    0.9993022     1.908528 -0.0005571946     18714.25
        9292    0.9990739     1.907847 -0.0004810617     18715.25
        9293    0.9991186     1.907273 -0.0006509316        18716
        9294    0.9994919     1.906806 -0.0005467574     18717.82
        9295    0.9998512     1.905924 -0.0005360237     18719.99
        9296    0.9997696      1.90566 -0.0005840599     18720.69
        9297    0.9995145     1.905128 -0.0005079247     18721.65
        9298    0.9994809     1.904469 -0.0006279481     18722.96
        9299      0.99937     1.903892 -0.0005683053      18724.9
        9300    0.9994418     1.903149 -0.0005903493     18727.61
        9301    0.9992888     1.902855 -0.0005665147     18727.06
        9302     0.999146     1.902108 -0.0005426939     18728.91
        9303    0.9990772     1.901626 -0.0006673141     18728.75
        9304    0.9992378     1.900978 -0.0005042996     18728.49
        9305    0.9993831     1.900186 -0.0005356746     18728.33
        9306    0.9994067     1.900091 -0.0005299246      18728.1
        9307     0.999768     1.899484 -0.0004881519     18730.32
        9308     1.000061     1.898858 -0.0005620943     18731.87
        9309     1.000103     1.898233 -0.0005726954     18732.77
        9310    0.9999546     1.897842 -0.0005646648      18732.9
        9311     1.000197     1.897193 -0.0005637404     18732.96
        9312     1.000653     1.896599 -0.0006036965     18733.09
        9313     1.000991     1.895978 -0.0005496049     18734.69
        9314      1.00117     1.895428 -0.0005736648     18736.83
        9315     1.001008     1.894994 -0.0005768192     18737.07
        9316     1.000897     1.894305 -0.0005792274     18738.47
        9317      1.00089     1.893671 -0.0006489913     18741.03
        9318     1.000766     1.893111 -0.0006535909     18743.66
        9319     1.000892     1.892398 -0.0005878031     18744.98
        9320     1.000777      1.89169 -0.0005951383     18744.13
        9321     1.000678      1.89132 -0.0005899269     18743.43
        9322     1.000212      1.89073 -0.0005697275     18741.11
        9323     1.000244     1.890039 -0.0006182208     18742.99
        9324    0.9999957     1.889412 -0.0006316058     18743.04
        9325     1.000125     1.888847 -0.000568181     18744.56
        9326     1.000622     1.888204 -0.0005297906     18747.23
        9327     1.000959     1.887766 -0.0005216786     18747.82
        9328     1.001268     1.887292 -0.0005175625     18750.12
        9329     1.001197      1.88676 -0.0005674491     18750.48
        9330     1.001387     1.886133 -0.0006259341     18753.43
        9331     1.001758     1.885496 -0.0005847368     18753.89
        9332     1.002149     1.884789 -0.0005938469     18751.82
        9333     1.002542     1.884421 -0.0006223505     18751.47
        9334     1.002952     1.883758 -0.0005653347      18752.5
        9335     1.003129     1.883007 -0.0006557854      18755.3
        9336     1.003052     1.882527 -0.0006548314     18759.31
        9337     1.003124     1.881798 -0.0006038233      18761.3
        9338     1.003386     1.881139 -0.0006093253     18762.05
        9339     1.003462     1.880591 -0.0005633652      18761.6
        9340     1.003508      1.88009 -0.0006046509     18760.56
        9341     1.003496     1.879545 -0.0006233677     18761.11
        9342     1.003501      1.87872 -0.0006596706     18760.96
        9343     1.003588     1.878098 -0.0007044232     18762.68
        9344     1.003422     1.877451 -0.0006178529     18762.94
        9345     1.003485     1.876727 -0.0005454691     18763.73
        9346     1.003087     1.876249 -0.0005580518     18764.53
        9347     1.002567     1.875916 -0.0005898076     18765.18
        9348     1.002338     1.875219 -0.000610062     18767.04
        9349      1.00225     1.874368 -0.0006548364     18766.33
        9350     1.002031     1.873808 -0.0006506407      18761.3
        9351      1.00184     1.873297 -0.0006369791     18759.25
        9352     1.001791     1.872617 -0.0006103445      18761.7
        9353     1.001844      1.87182 -0.0007217579     18764.47
        9354     1.001521     1.871367 -0.0006712884     18765.71
        9355     1.001373      1.87041 -0.0005682102     18767.07
        9356     1.001439     1.869931 -0.0006167397     18771.16
        9357     1.001597     1.869547 -0.0004861798     18775.41
        9358       1.0016       1.8689 -0.0005409838     18777.22
        9359     1.001378     1.868465 -0.0005908128     18776.22
        9360     1.001368     1.867767 -0.0006003418     18775.21
        9361     1.001215     1.867184 -0.0005680184     18772.08
        9362     1.001444     1.866499 -0.0005672713     18769.55
        9363      1.00186     1.866193 -0.0006556412     18770.82
        9364     1.002347     1.865498 -0.0006033528     18772.45
        9365     1.002688     1.864561 -0.0007047065     18772.94
        9366     1.002709     1.864085 -0.0006746198     18774.78
        9367     1.002256     1.863374 -0.0005631068     18777.86
        9368     1.001705       1.8628 -0.0006501869     18782.87
        9369     1.001361     1.862309 -0.0005547745     18785.26
        9370     1.001097     1.861485 -0.0005444511        18785
        9371     1.000588     1.861155 -0.0005950731     18786.68
        9372     1.000387     1.860622 -0.0005221461     18789.58
        9373     1.000287     1.859929 -0.0006886335     18789.05
        9374     1.000216     1.859396 -0.0006019824     18787.72
        9375     1.000522       1.8584 -0.0005885226     18786.63
        9376     1.000812     1.858214 -0.0006449332     18786.91
        9377      1.00103     1.857575 -0.000547683     18787.66
        9378     1.001529     1.856816 -0.0006301529     18789.33
        9379     1.001764      1.85621 -0.0006108783     18791.93
        9380     1.001794     1.855694 -0.0005492341     18792.64
        9381      1.00163     1.855131 -0.000577555      18792.6
        9382     1.001505     1.854619 -0.0005613076     18793.57
        9383     1.001694       1.8539 -0.0006332371     18794.64
        9384     1.001836     1.853448 -0.0006437682     18795.53
        9385      1.00186     1.852598 -0.0006109335     18798.15
        9386     1.001448     1.852044 -0.0006678945     18798.43
        9387     1.001247     1.851456 -0.000553964     18799.93
        9388     1.001185     1.850777 -0.0005482371     18799.75
        9389     1.001519     1.850382 -0.0006121193     18799.48
        9390     1.001571     1.849851 -0.0005918741     18799.59
        9391     1.001235     1.849007 -0.0006705835     18797.93
        9392     1.000757     1.848409 -0.0006638522     18796.43
        9393     1.000414       1.8477 -0.0006110369     18796.53
        9394     1.000434     1.847196 -0.0006849098     18797.78
        9395     1.000566     1.846563 -0.0006427415     18798.08
        9396     1.000376      1.84567 -0.0007353883     18799.29
        9397      1.00026     1.845129 -0.0006840231     18799.61
        9398     1.000417     1.844254 -0.0005472499     18800.62
        9399      1.00036     1.843827 -0.0005713571     18802.56
        9400     1.000178     1.843481 -0.0005426439     18802.34
        9401     1.000196     1.842843 -0.0006228858     18801.65
        9402    0.9999953     1.842084 -0.000592809     18801.67
        9403     0.999721     1.841336 -0.0005764899     18803.72
        9404    0.9996886     1.841109 -0.0005020613     18804.75
        9405    0.9998987     1.840537 -0.0004889029     18806.32
        9406     1.000062     1.840076 -0.0006089594     18806.99
        9407     1.000292      1.83938 -0.0005994217     18807.81
        9408     1.000418     1.838674 -0.0006041332     18806.37
        9409     1.000542      1.83814 -0.0006481104     18806.97
        9410     1.000343     1.837659 -0.0006127919     18807.95
        9411     1.000188     1.836787 -0.0005806992     18808.36
        9412     1.000015     1.836222 -0.0006868776     18809.45
        9413    0.9997394     1.835817 -0.000632908     18810.94
        9414     0.999533     1.834911 -0.0006471352     18812.06
        9415    0.9994165     1.834256 -0.0007532314     18813.05
        9416    0.9989835     1.833634 -0.0006648477     18812.74
        9417    0.9989781     1.832804 -0.000603694     18812.61
        9418    0.9991237     1.832252 -0.0005885982     18811.26
        9419    0.9994322     1.831841 -0.000562286     18810.65
        9420    0.9995184     1.831279 -0.0006110854     18810.31
        9421    0.9996893     1.830555 -0.0006022878     18809.14
        9422    0.9999906     1.829808 -0.0006661934     18808.45
        9423     1.000072     1.829432 -0.0005768919      18807.2
        9424    0.9999558     1.828615 -0.0005496918        18808
        9425    0.9997297     1.828247 -0.0006886516     18807.67
        9426    0.9997893     1.827609 -0.0006222069     18807.95
        9427    0.9997174     1.826677 -0.0006609285     18808.05
        9428     0.999358     1.826126 -0.0006443576     18807.77
        9429    0.9990974     1.825604 -0.0005580079     18806.65
        9430    0.9987574     1.825032 -0.0005172934     18808.03
        9431    0.9981801     1.824445 -0.0005627976     18808.17
        9432    0.9981832     1.824057 -0.000720322     18808.96
        9433    0.9983737     1.823352 -0.0005964778     18809.84
        9434    0.9987732      1.82215 -0.0006668647     18809.53
        9435    0.9989682     1.822059 -0.0006408127     18808.81
        9436    0.9991626     1.821389 -0.0005185701     18809.53
        9437    0.9992081     1.820789 -0.0006160794     18809.11
        9438     0.999108     1.820076 -0.0006380591     18809.93
        9439    0.9991572     1.819595 -0.0007145806     18809.23
        9440    0.9990781     1.818837 -0.0005773785     18809.27
        9441    0.9990013     1.817931 -0.0006110962      18809.5
        9442    0.9989285     1.817766 -0.000589715     18808.91
        9443    0.9987487     1.817151 -0.0004932966      18807.9
        9444    0.9987224     1.816478 -0.0006028751     18807.98
        9445    0.9984433     1.815958 -0.0005642897     18808.04
        9446    0.9981378     1.815355 -0.0005601222     18807.99
        9447    0.9980943     1.814894 -0.0005703154     18808.93
        9448     0.998054     1.814238 -0.0005680894     18808.88
        9449    0.9980124     1.813676 -0.0005850332     18809.67
        9450    0.9978372     1.813083 -0.0005932591     18806.99
        9451    0.9977126     1.812553 -0.0006207254     18807.94
        9452     0.997783     1.811865 -0.0006357261     18808.23
        9453    0.9978028     1.811194 -0.0006396652     18806.24
        9454    0.9984277      1.81054 -0.0006452619     18806.99
        9455     0.998878     1.809995 -0.0006307122     18807.28
        9456    0.9994481     1.809284 -0.0005847441     18806.54
        9457     1.000002     1.808671 -0.0006223815     18806.09
        9458     1.000148     1.808201 -0.0005744378     18804.27
        9459     1.000246     1.807505 -0.0005652476     18804.07
        9460     1.000165     1.806986 -0.0005704323      18804.1
        9461     1.000217      1.80641 -0.0005798275     18806.33
        9462     1.000136     1.805919 -0.0005286762     18808.21
        9463    0.9995304     1.805186 -0.0004892334     18809.15
        9464    0.9987101     1.804871 -0.0005337158     18809.82
        9465    0.9981074     1.804453 -0.0004729214     18809.53
        9466    0.9975919     1.803784 -0.0005804255      18811.1
        9467    0.9970238     1.803294 -0.0006181914     18810.32
        9468    0.9967501     1.802549 -0.0005858416     18811.94
        9469      0.99644      1.80198 -0.0006480488     18810.61
        9470    0.9964323     1.801441 -0.0005149121     18811.11
        9471    0.9964953     1.800702 -0.0005357444     18811.31
        9472    0.9964099      1.80049 -0.0005564913      18809.3
        9473    0.9964548     1.799837 -0.0005017592     18808.06
        9474    0.9962663     1.799215 -0.0006129905     18806.15
        9475    0.9963189     1.798695   -0.0005562     18805.68
        9476    0.9963676     1.798038 -0.0005541956     18805.18
        9477    0.9965571     1.797612 -0.0005208523     18805.01
        9478    0.9969007     1.796998 -0.0005118936     18805.27
        9479    0.9972658     1.796612 -0.0005355676     18805.11
        9480    0.9971133      1.79599 -0.0005535947     18805.27
        9481    0.9963652      1.79547 -0.000563139     18805.51
        9482    0.9960338     1.794784 -0.0006123791     18803.91
        9483    0.9959193     1.794359 -0.0006084405     18800.06
        9484    0.9959532     1.793541 -0.0005783193     18789.08
        9485    0.9958284     1.793036 -0.0006024728     18768.78
        9486    0.9959076      1.79247 -0.0005272097     18763.87
        9487    0.9961537     1.791949 -0.0005360494     18769.96
        9488    0.9962309     1.791432 -0.0005695029     18780.29
        9489    0.9959308     1.790892 -0.0005013855     18788.27
        9490    0.9958676     1.790192 -0.0005492304     18790.37
        9491    0.9956495     1.789944 -0.0004654934     18777.09
        9492    0.9958956     1.789235 -0.0004918124     18760.16
        9493    0.9957688      1.78903 -0.0006119629     18760.27
        9494    0.9958897     1.788225 -0.0005091897     18768.57
        9495    0.9957725     1.787496 -0.0006419134     18780.45
        9496    0.9956716     1.787198 -0.0006006186     18788.67
        9497    0.9955049     1.786462 -0.0005368558     18789.58
        9498    0.9953134     1.785823 -0.0006326113     18788.97
        9499    0.9951441     1.785348 -0.0005817072     18788.09
        9500    0.9951964     1.784668 -0.0006860519     18786.88
